# 
# Calculated Spectral Density
# Lineshape: lor
# Linewidths (cm^-1): 5.0 
# 
# E (cm^-1)     E (eV)  Spectral Density (cm^-1)
# 
     0.0000 0.00000000    9.10008227e+00
     0.5000 0.00006199    9.16863489e+00
     1.0000 0.00012398    9.23929940e+00
     1.5000 0.00018598    9.31217519e+00
     2.0000 0.00024797    9.38736762e+00
     2.5000 0.00030996    9.46498848e+00
     3.0000 0.00037195    9.54515647e+00
     3.5000 0.00043394    9.62799770e+00
     4.0000 0.00049594    9.71364626e+00
     4.5000 0.00055793    9.80224487e+00
     5.0000 0.00061992    9.89394549e+00
     5.5000 0.00068191    9.98891008e+00
     6.0000 0.00074391    1.00873114e+01
     6.5000 0.00080590    1.01893340e+01
     7.0000 0.00086789    1.02951748e+01
     7.5000 0.00092988    1.04050446e+01
     8.0000 0.00099187    1.05191691e+01
     8.5000 0.00105387    1.06377899e+01
     9.0000 0.00111586    1.07611662e+01
     9.5000 0.00117785    1.08895764e+01
    10.0000 0.00123984    1.10233193e+01
    10.5000 0.00130183    1.11627167e+01
    11.0000 0.00136383    1.13081148e+01
    11.5000 0.00142582    1.14598868e+01
    12.0000 0.00148781    1.16184358e+01
    12.5000 0.00154980    1.17841969e+01
    13.0000 0.00161179    1.19576409e+01
    13.5000 0.00167379    1.21392776e+01
    14.0000 0.00173578    1.23296600e+01
    14.5000 0.00179777    1.25293883e+01
    15.0000 0.00185976    1.27391150e+01
    15.5000 0.00192176    1.29595507e+01
    16.0000 0.00198375    1.31914698e+01
    16.5000 0.00204574    1.34357179e+01
    17.0000 0.00210773    1.36932194e+01
    17.5000 0.00216972    1.39649868e+01
    18.0000 0.00223172    1.42521304e+01
    18.5000 0.00229371    1.45558698e+01
    19.0000 0.00235570    1.48775473e+01
    19.5000 0.00241769    1.52186423e+01
    20.0000 0.00247968    1.55807884e+01
    20.5000 0.00254168    1.59657927e+01
    21.0000 0.00260367    1.63756580e+01
    21.5000 0.00266566    1.68126082e+01
    22.0000 0.00272765    1.72791178e+01
    22.5000 0.00278964    1.77779455e+01
    23.0000 0.00285164    1.83121732e+01
    23.5000 0.00291363    1.88852511e+01
    24.0000 0.00297562    1.95010506e+01
    24.5000 0.00303761    2.01639246e+01
    25.0000 0.00309960    2.08787788e+01
    25.5000 0.00316160    2.16511542e+01
    26.0000 0.00322359    2.24873236e+01
    26.5000 0.00328558    2.33944042e+01
    27.0000 0.00334757    2.43804897e+01
    27.5000 0.00340957    2.54548039e+01
    28.0000 0.00347156    2.66278807e+01
    28.5000 0.00353355    2.79117737e+01
    29.0000 0.00359554    2.93202992e+01
    29.5000 0.00365753    3.08693173e+01
    30.0000 0.00371953    3.25770535e+01
    30.5000 0.00378152    3.44644628e+01
    31.0000 0.00384351    3.65556323e+01
    31.5000 0.00390550    3.88782159e+01
    32.0000 0.00396749    4.14638783e+01
    32.5000 0.00402949    4.43487114e+01
    33.0000 0.00409148    4.75735526e+01
    33.5000 0.00415347    5.11840896e+01
    34.0000 0.00421546    5.52305632e+01
    34.5000 0.00427745    5.97667733e+01
    35.0000 0.00433945    6.48479443e+01
    35.5000 0.00440144    7.05268163e+01
    36.0000 0.00446343    7.68471080e+01
    36.5000 0.00452542    8.38333350e+01
    37.0000 0.00458742    9.14760035e+01
    37.5000 0.00464941    9.97117802e+01
    38.0000 0.00471140    1.08399814e+02
    38.5000 0.00477339    1.17298470e+02
    39.0000 0.00483538    1.26051261e+02
    39.5000 0.00489738    1.34195208e+02
    40.0000 0.00495937    1.41205150e+02
    40.5000 0.00502136    1.46578597e+02
    41.0000 0.00508335    1.49945938e+02
    41.5000 0.00514534    1.51169165e+02
    42.0000 0.00520734    1.50386324e+02
    42.5000 0.00526933    1.47979655e+02
    43.0000 0.00533132    1.44481672e+02
    43.5000 0.00539331    1.40459109e+02
    44.0000 0.00545530    1.36413956e+02
    44.5000 0.00551730    1.32721086e+02
    45.0000 0.00557929    1.29601191e+02
    45.5000 0.00564128    1.27117695e+02
    46.0000 0.00570327    1.25187191e+02
    46.5000 0.00576527    1.23599718e+02
    47.0000 0.00582726    1.22051835e+02
    47.5000 0.00588925    1.20197254e+02
    48.0000 0.00595124    1.17713948e+02
    48.5000 0.00601323    1.14374714e+02
    49.0000 0.00607523    1.10098355e+02
    49.5000 0.00613722    1.04961092e+02
    50.0000 0.00619921    9.91645836e+01
    50.5000 0.00626120    9.29767757e+01
    51.0000 0.00632319    8.66706754e+01
    51.5000 0.00638519    8.04801128e+01
    52.0000 0.00644718    7.45787092e+01
    52.5000 0.00650917    6.90779895e+01
    53.0000 0.00657116    6.40366611e+01
    53.5000 0.00663315    5.94739407e+01
    54.0000 0.00669515    5.53824655e+01
    54.5000 0.00675714    5.17387622e+01
    55.0000 0.00681913    4.85108164e+01
    55.5000 0.00688112    4.56630390e+01
    56.0000 0.00694311    4.31591633e+01
    56.5000 0.00700511    4.09636012e+01
    57.0000 0.00706710    3.90416875e+01
    57.5000 0.00712909    3.73591729e+01
    58.0000 0.00719108    3.58813156e+01
    58.5000 0.00725308    3.45720084e+01
    59.0000 0.00731507    3.33935061e+01
    59.5000 0.00737706    3.23073662e+01
    60.0000 0.00743905    3.12769769e+01
    60.5000 0.00750104    3.02713807e+01
    61.0000 0.00756304    2.92692074e+01
    61.5000 0.00762503    2.82610267e+01
    62.0000 0.00768702    2.72489109e+01
    62.5000 0.00774901    2.62433207e+01
    63.0000 0.00781100    2.52586709e+01
    63.5000 0.00787300    2.43092432e+01
    64.0000 0.00793499    2.34065062e+01
    64.5000 0.00799698    2.25580199e+01
    65.0000 0.00805897    2.17675237e+01
    65.5000 0.00812096    2.10356484e+01
    66.0000 0.00818296    2.03608090e+01
    66.5000 0.00824495    1.97400241e+01
    67.0000 0.00830694    1.91695583e+01
    67.5000 0.00836893    1.86453767e+01
    68.0000 0.00843093    1.81634411e+01
    68.5000 0.00849292    1.77198869e+01
    69.0000 0.00855491    1.73111176e+01
    69.5000 0.00861690    1.69338460e+01
    70.0000 0.00867889    1.65851018e+01
    70.5000 0.00874089    1.62622206e+01
    71.0000 0.00880288    1.59628226e+01
    71.5000 0.00886487    1.56847872e+01
    72.0000 0.00892686    1.54262260e+01
    72.5000 0.00898885    1.51854576e+01
    73.0000 0.00905085    1.49609829e+01
    73.5000 0.00911284    1.47514642e+01
    74.0000 0.00917483    1.45557051e+01
    74.5000 0.00923682    1.43726342e+01
    75.0000 0.00929881    1.42012896e+01
    75.5000 0.00936081    1.40408063e+01
    76.0000 0.00942280    1.38904044e+01
    76.5000 0.00948479    1.37493799e+01
    77.0000 0.00954678    1.36170953e+01
    77.5000 0.00960878    1.34929730e+01
    78.0000 0.00967077    1.33764880e+01
    78.5000 0.00973276    1.32671629e+01
    79.0000 0.00979475    1.31645625e+01
    79.5000 0.00985674    1.30682899e+01
    80.0000 0.00991874    1.29779822e+01
    80.5000 0.00998073    1.28933075e+01
    81.0000 0.01004272    1.28139619e+01
    81.5000 0.01010471    1.27396669e+01
    82.0000 0.01016670    1.26701671e+01
    82.5000 0.01022870    1.26052283e+01
    83.0000 0.01029069    1.25446356e+01
    83.5000 0.01035268    1.24881917e+01
    84.0000 0.01041467    1.24357160e+01
    84.5000 0.01047666    1.23870427e+01
    85.0000 0.01053866    1.23420202e+01
    85.5000 0.01060065    1.23005100e+01
    86.0000 0.01066264    1.22623857e+01
    86.5000 0.01072463    1.22275327e+01
    87.0000 0.01078662    1.21958468e+01
    87.5000 0.01084862    1.21672345e+01
    88.0000 0.01091061    1.21416117e+01
    88.5000 0.01097260    1.21189041e+01
    89.0000 0.01103459    1.20990462e+01
    89.5000 0.01109659    1.20819813e+01
    90.0000 0.01115858    1.20676615e+01
    90.5000 0.01122057    1.20560471e+01
    91.0000 0.01128256    1.20471070e+01
    91.5000 0.01134455    1.20408183e+01
    92.0000 0.01140655    1.20371667e+01
    92.5000 0.01146854    1.20361463e+01
    93.0000 0.01153053    1.20377600e+01
    93.5000 0.01159252    1.20420199e+01
    94.0000 0.01165451    1.20489471e+01
    94.5000 0.01171651    1.20585729e+01
    95.0000 0.01177850    1.20709386e+01
    95.5000 0.01184049    1.20860968e+01
    96.0000 0.01190248    1.21041115e+01
    96.5000 0.01196447    1.21250595e+01
    97.0000 0.01202647    1.21490311e+01
    97.5000 0.01208846    1.21761315e+01
    98.0000 0.01215045    1.22064822e+01
    98.5000 0.01221244    1.22402223e+01
    99.0000 0.01227444    1.22775106e+01
    99.5000 0.01233643    1.23185278e+01
   100.0000 0.01239842    1.23634786e+01
   100.5000 0.01246041    1.24125950e+01
   101.0000 0.01252240    1.24661391e+01
   101.5000 0.01258440    1.25244073e+01
   102.0000 0.01264639    1.25877345e+01
   102.5000 0.01270838    1.26564990e+01
   103.0000 0.01277037    1.27311289e+01
   103.5000 0.01283236    1.28121085e+01
   104.0000 0.01289436    1.28999865e+01
   104.5000 0.01295635    1.29953855e+01
   105.0000 0.01301834    1.30990125e+01
   105.5000 0.01308033    1.32116721e+01
   106.0000 0.01314232    1.33342811e+01
   106.5000 0.01320432    1.34678862e+01
   107.0000 0.01326631    1.36136843e+01
   107.5000 0.01332830    1.37730466e+01
   108.0000 0.01339029    1.39475465e+01
   108.5000 0.01345229    1.41389925e+01
   109.0000 0.01351428    1.43494656e+01
   109.5000 0.01357627    1.45813634e+01
   110.0000 0.01363826    1.48374498e+01
   110.5000 0.01370025    1.51209107e+01
   111.0000 0.01376225    1.54354161e+01
   111.5000 0.01382424    1.57851842e+01
   112.0000 0.01388623    1.61750469e+01
   112.5000 0.01394822    1.66105060e+01
   113.0000 0.01401021    1.70977694e+01
   113.5000 0.01407221    1.76437456e+01
   114.0000 0.01413420    1.82559615e+01
   114.5000 0.01419619    1.89423523e+01
   115.0000 0.01425818    1.97108437e+01
   115.5000 0.01432017    2.05686175e+01
   116.0000 0.01438217    2.15209144e+01
   116.5000 0.01444416    2.25692110e+01
   117.0000 0.01450615    2.37086254e+01
   117.5000 0.01456814    2.49245367e+01
   118.0000 0.01463013    2.61887089e+01
   118.5000 0.01469213    2.74557692e+01
   119.0000 0.01475412    2.86616476e+01
   119.5000 0.01481611    2.97261948e+01
   120.0000 0.01487810    3.05619374e+01
   120.5000 0.01494010    3.10890208e+01
   121.0000 0.01500209    3.12529610e+01
   121.5000 0.01506408    3.10387540e+01
   122.0000 0.01512607    3.04750291e+01
   122.5000 0.01518806    2.96262290e+01
   123.0000 0.01525006    2.85765573e+01
   123.5000 0.01531205    2.74125298e+01
   124.0000 0.01537404    2.62098188e+01
   124.5000 0.01543603    2.50265897e+01
   125.0000 0.01549802    2.39024668e+01
   125.5000 0.01556002    2.28609404e+01
   126.0000 0.01562201    2.19131375e+01
   126.5000 0.01568400    2.10616009e+01
   127.0000 0.01574599    2.03034308e+01
   127.5000 0.01580798    1.96326229e+01
   128.0000 0.01586998    1.90416741e+01
   128.5000 0.01593197    1.85226145e+01
   129.0000 0.01599396    1.80676268e+01
   129.5000 0.01605595    1.76693879e+01
   130.0000 0.01611795    1.73212305e+01
   130.5000 0.01617994    1.70171969e+01
   131.0000 0.01624193    1.67520279e+01
   131.5000 0.01630392    1.65211184e+01
   132.0000 0.01636591    1.63204575e+01
   132.5000 0.01642791    1.61465625e+01
   133.0000 0.01648990    1.59964157e+01
   133.5000 0.01655189    1.58674036e+01
   134.0000 0.01661388    1.57572639e+01
   134.5000 0.01667587    1.56640372e+01
   135.0000 0.01673787    1.55860252e+01
   135.5000 0.01679986    1.55217551e+01
   136.0000 0.01686185    1.54699483e+01
   136.5000 0.01692384    1.54294941e+01
   137.0000 0.01698583    1.53994265e+01
   137.5000 0.01704783    1.53789055e+01
   138.0000 0.01710982    1.53672003e+01
   138.5000 0.01717181    1.53636751e+01
   139.0000 0.01723380    1.53677773e+01
   139.5000 0.01729580    1.53790275e+01
   140.0000 0.01735779    1.53970103e+01
   140.5000 0.01741978    1.54213672e+01
   141.0000 0.01748177    1.54517904e+01
   141.5000 0.01754376    1.54880171e+01
   142.0000 0.01760576    1.55298249e+01
   142.5000 0.01766775    1.55770281e+01
   143.0000 0.01772974    1.56294746e+01
   143.5000 0.01779173    1.56870424e+01
   144.0000 0.01785372    1.57496379e+01
   144.5000 0.01791572    1.58171939e+01
   145.0000 0.01797771    1.58896676e+01
   145.5000 0.01803970    1.59670399e+01
   146.0000 0.01810169    1.60493139e+01
   146.5000 0.01816368    1.61365146e+01
   147.0000 0.01822568    1.62286882e+01
   147.5000 0.01828767    1.63259020e+01
   148.0000 0.01834966    1.64282443e+01
   148.5000 0.01841165    1.65358244e+01
   149.0000 0.01847364    1.66487735e+01
   149.5000 0.01853564    1.67672449e+01
   150.0000 0.01859763    1.68914150e+01
   150.5000 0.01865962    1.70214845e+01
   151.0000 0.01872161    1.71576795e+01
   151.5000 0.01878361    1.73002531e+01
   152.0000 0.01884560    1.74494875e+01
   152.5000 0.01890759    1.76056960e+01
   153.0000 0.01896958    1.77692256e+01
   153.5000 0.01903157    1.79404597e+01
   154.0000 0.01909357    1.81198217e+01
   154.5000 0.01915556    1.83077787e+01
   155.0000 0.01921755    1.85048460e+01
   155.5000 0.01927954    1.87115918e+01
   156.0000 0.01934153    1.89286430e+01
   156.5000 0.01940353    1.91566920e+01
   157.0000 0.01946552    1.93965038e+01
   157.5000 0.01952751    1.96489246e+01
   158.0000 0.01958950    1.99148919e+01
   158.5000 0.01965149    2.01954453e+01
   159.0000 0.01971349    2.04917397e+01
   159.5000 0.01977548    2.08050604e+01
   160.0000 0.01983747    2.11368399e+01
   160.5000 0.01989946    2.14886782e+01
   161.0000 0.01996146    2.18623658e+01
   161.5000 0.02002345    2.22599102e+01
   162.0000 0.02008544    2.26835678e+01
   162.5000 0.02014743    2.31358796e+01
   163.0000 0.02020942    2.36197138e+01
   163.5000 0.02027142    2.41383155e+01
   164.0000 0.02033341    2.46953642e+01
   164.5000 0.02039540    2.52950419e+01
   165.0000 0.02045739    2.59421122e+01
   165.5000 0.02051938    2.66420126e+01
   166.0000 0.02058138    2.74009628e+01
   166.5000 0.02064337    2.82260897e+01
   167.0000 0.02070536    2.91255726e+01
   167.5000 0.02076735    3.01088096e+01
   168.0000 0.02082934    3.11866055e+01
   168.5000 0.02089134    3.23713809e+01
   169.0000 0.02095333    3.36773982e+01
   169.5000 0.02101532    3.51209938e+01
   170.0000 0.02107731    3.67207969e+01
   170.5000 0.02113931    3.84979012e+01
   171.0000 0.02120130    4.04759291e+01
   171.5000 0.02126329    4.26808925e+01
   172.0000 0.02132528    4.51407004e+01
   172.5000 0.02138727    4.78840824e+01
   173.0000 0.02144927    5.09385977e+01
   173.5000 0.02151126    5.43272780e+01
   174.0000 0.02157325    5.80633470e+01
   174.5000 0.02163524    6.21424508e+01
   175.0000 0.02169723    6.65320682e+01
   175.5000 0.02175923    7.11585170e+01
   176.0000 0.02182122    7.58935004e+01
   176.5000 0.02188321    8.05445367e+01
   177.0000 0.02194520    8.48562381e+01
   177.5000 0.02200719    8.85303105e+01
   178.0000 0.02206919    9.12684216e+01
   178.5000 0.02213118    9.28321472e+01
   179.0000 0.02219317    9.31016373e+01
   179.5000 0.02225516    9.21087400e+01
   180.0000 0.02231715    9.00289160e+01
   180.5000 0.02237915    8.71359041e+01
   181.0000 0.02244114    8.37398460e+01
   181.5000 0.02250313    8.01323502e+01
   182.0000 0.02256512    7.65523172e+01
   182.5000 0.02262712    7.31739173e+01
   183.0000 0.02268911    7.01104542e+01
   183.5000 0.02275110    6.74262048e+01
   184.0000 0.02281309    6.51501975e+01
   184.5000 0.02287508    6.32885778e+01
   185.0000 0.02293708    6.18343032e+01
   185.5000 0.02299907    6.07741153e+01
   186.0000 0.02306106    6.00932549e+01
   186.5000 0.02312305    5.97785050e+01
   187.0000 0.02318504    5.98200846e+01
   187.5000 0.02324704    6.02127994e+01
   188.0000 0.02330903    6.09567307e+01
   188.5000 0.02337102    6.20576478e+01
   189.0000 0.02343301    6.35272404e+01
   189.5000 0.02349500    6.53832030e+01
   190.0000 0.02355700    6.76491313e+01
   190.5000 0.02361899    7.03541189e+01
   191.0000 0.02368098    7.35318479e+01
   191.5000 0.02374297    7.72188450e+01
   192.0000 0.02380497    8.14514216e+01
   192.5000 0.02386696    8.62606402e+01
   193.0000 0.02392895    9.16645016e+01
   193.5000 0.02399094    9.76565451e+01
   194.0000 0.02405293    1.04190429e+02
   194.5000 0.02411493    1.11161182e+02
   195.0000 0.02417692    1.18386100e+02
   195.5000 0.02423891    1.25591760e+02
   196.0000 0.02430090    1.32417364e+02
   196.5000 0.02436289    1.38445632e+02
   197.0000 0.02442489    1.43266618e+02
   197.5000 0.02448688    1.46565017e+02
   198.0000 0.02454887    1.48203636e+02
   198.5000 0.02461086    1.48268172e+02
   199.0000 0.02467285    1.47052069e+02
   199.5000 0.02473485    1.44988798e+02
   200.0000 0.02479684    1.42561984e+02
   200.5000 0.02485883    1.40226435e+02
   201.0000 0.02492082    1.38358380e+02
   201.5000 0.02498282    1.37235374e+02
   202.0000 0.02504481    1.37035662e+02
   202.5000 0.02510680    1.37844731e+02
   203.0000 0.02516879    1.39659801e+02
   203.5000 0.02523078    1.42387633e+02
   204.0000 0.02529278    1.45835792e+02
   204.5000 0.02535477    1.49702489e+02
   205.0000 0.02541676    1.53575151e+02
   205.5000 0.02547875    1.56951319e+02
   206.0000 0.02554074    1.59293415e+02
   206.5000 0.02560274    1.60117129e+02
   207.0000 0.02566473    1.59093107e+02
   207.5000 0.02572672    1.56124725e+02
   208.0000 0.02578871    1.51367028e+02
   208.5000 0.02585070    1.45177659e+02
   209.0000 0.02591270    1.38023073e+02
   209.5000 0.02597469    1.30379419e+02
   210.0000 0.02603668    1.22659455e+02
   210.5000 0.02609867    1.15176687e+02
   211.0000 0.02616066    1.08140967e+02
   211.5000 0.02622266    1.01672879e+02
   212.0000 0.02628465    9.58252959e+01
   212.5000 0.02634664    9.06046433e+01
   213.0000 0.02640863    8.59884199e+01
   213.5000 0.02647063    8.19381523e+01
   214.0000 0.02653262    7.84082466e+01
   214.5000 0.02659461    7.53516479e+01
   215.0000 0.02665660    7.27232223e+01
   215.5000 0.02671859    7.04816136e+01
   216.0000 0.02678059    6.85901257e+01
   216.5000 0.02684258    6.70170177e+01
   217.0000 0.02690457    6.57354610e+01
   217.5000 0.02696656    6.47233185e+01
   218.0000 0.02702855    6.39628355e+01
   218.5000 0.02709055    6.34402892e+01
   219.0000 0.02715254    6.31456062e+01
   219.5000 0.02721453    6.30719269e+01
   220.0000 0.02727652    6.32150697e+01
   220.5000 0.02733851    6.35728085e+01
   221.0000 0.02740051    6.41438418e+01
   221.5000 0.02746250    6.49262891e+01
   222.0000 0.02752449    6.59155221e+01
   222.5000 0.02758648    6.71011528e+01
   223.0000 0.02764848    6.84631246e+01
   223.5000 0.02771047    6.99671731e+01
   224.0000 0.02777246    7.15605235e+01
   224.5000 0.02783445    7.31695483e+01
   225.0000 0.02789644    7.47018767e+01
   225.5000 0.02795844    7.60553549e+01
   226.0000 0.02802043    7.71343582e+01
   226.5000 0.02808242    7.78701629e+01
   227.0000 0.02814441    7.82382914e+01
   227.5000 0.02820640    7.82652113e+01
   228.0000 0.02826840    7.80211447e+01
   228.5000 0.02833039    7.76024493e+01
   229.0000 0.02839238    7.71112525e+01
   229.5000 0.02845437    7.66393300e+01
   230.0000 0.02851636    7.62593709e+01
   230.5000 0.02857836    7.60230223e+01
   231.0000 0.02864035    7.59632869e+01
   231.5000 0.02870234    7.60987962e+01
   232.0000 0.02876433    7.64382666e+01
   232.5000 0.02882633    7.69842949e+01
   233.0000 0.02888832    7.77362389e+01
   233.5000 0.02895031    7.86922443e+01
   234.0000 0.02901230    7.98505920e+01
   234.5000 0.02907429    8.12105582e+01
   235.0000 0.02913629    8.27729481e+01
   235.5000 0.02919828    8.45404259e+01
   236.0000 0.02926027    8.65177290e+01
   236.5000 0.02932226    8.87118242e+01
   237.0000 0.02938425    9.11320477e+01
   237.5000 0.02944625    9.37902546e+01
   238.0000 0.02950824    9.67009973e+01
   238.5000 0.02957023    9.98817463e+01
   239.0000 0.02963222    1.03353165e+02
   239.5000 0.02969421    1.07139447e+02
   240.0000 0.02975621    1.11268735e+02
   240.5000 0.02981820    1.15773613e+02
   241.0000 0.02988019    1.20691712e+02
   241.5000 0.02994218    1.26066419e+02
   242.0000 0.03000417    1.31947718e+02
   242.5000 0.03006617    1.38393168e+02
   243.0000 0.03012816    1.45469047e+02
   243.5000 0.03019015    1.53251657e+02
   244.0000 0.03025214    1.61828798e+02
   244.5000 0.03031414    1.71301392e+02
   245.0000 0.03037613    1.81785221e+02
   245.5000 0.03043812    1.93412662e+02
   246.0000 0.03050011    2.06334259e+02
   246.5000 0.03056210    2.20719808e+02
   247.0000 0.03062410    2.36758440e+02
   247.5000 0.03068609    2.54656888e+02
   248.0000 0.03074808    2.74634680e+02
   248.5000 0.03081007    2.96914424e+02
   249.0000 0.03087206    3.21704625e+02
   249.5000 0.03093406    3.49171723e+02
   250.0000 0.03099605    3.79397499e+02
   250.5000 0.03105804    4.12318296e+02
   251.0000 0.03112003    4.47644710e+02
   251.5000 0.03118202    4.84766229e+02
   252.0000 0.03124402    5.22656817e+02
   252.5000 0.03130601    5.59815222e+02
   253.0000 0.03136800    5.94292643e+02
   253.5000 0.03142999    6.23864954e+02
   254.0000 0.03149199    6.46374175e+02
   254.5000 0.03155398    6.60184854e+02
   255.0000 0.03161597    6.64608106e+02
   255.5000 0.03167796    6.60112964e+02
   256.0000 0.03173995    6.48223390e+02
   256.5000 0.03180195    6.31150819e+02
   257.0000 0.03186394    6.11327516e+02
   257.5000 0.03192593    5.91011952e+02
   258.0000 0.03198792    5.72057386e+02
   258.5000 0.03204991    5.55843705e+02
   259.0000 0.03211191    5.43321251e+02
   259.5000 0.03217390    5.35107844e+02
   260.0000 0.03223589    5.31596089e+02
   260.5000 0.03229788    5.33048059e+02
   261.0000 0.03235987    5.39669169e+02
   261.5000 0.03242187    5.51661154e+02
   262.0000 0.03248386    5.69257040e+02
   262.5000 0.03254585    5.92741091e+02
   263.0000 0.03260784    6.22455287e+02
   263.5000 0.03266984    6.58791729e+02
   264.0000 0.03273183    7.02167708e+02
   264.5000 0.03279382    7.52977270e+02
   265.0000 0.03285581    8.11510056e+02
   265.5000 0.03291780    8.77826027e+02
   266.0000 0.03297980    9.51575243e+02
   266.5000 0.03304179    1.03175910e+03
   267.0000 0.03310378    1.11644882e+03
   267.5000 0.03316577    1.20251432e+03
   268.0000 0.03322776    1.28547006e+03
   268.5000 0.03328976    1.35959455e+03
   269.0000 0.03335175    1.41847823e+03
   269.5000 0.03341374    1.45604015e+03
   270.0000 0.03347573    1.46781784e+03
   270.5000 0.03353772    1.45208900e+03
   271.0000 0.03359972    1.41033672e+03
   271.5000 0.03366171    1.34683350e+03
   272.0000 0.03372370    1.26754506e+03
   272.5000 0.03378569    1.17883525e+03
   273.0000 0.03384768    1.08642364e+03
   273.5000 0.03390968    9.94807776e+02
   274.0000 0.03397167    9.07120650e+02
   274.5000 0.03403366    8.25271719e+02
   275.0000 0.03409565    7.50213033e+02
   275.5000 0.03415765    6.82220302e+02
   276.0000 0.03421964    6.21133074e+02
   276.5000 0.03428163    5.66536637e+02
   277.0000 0.03434362    5.17888679e+02
   277.5000 0.03440561    4.74601655e+02
   278.0000 0.03446761    4.36092907e+02
   278.5000 0.03452960    4.01812760e+02
   279.0000 0.03459159    3.71258369e+02
   279.5000 0.03465358    3.43978749e+02
   280.0000 0.03471557    3.19574648e+02
   280.5000 0.03477757    2.97695597e+02
   281.0000 0.03483956    2.78035615e+02
   281.5000 0.03490155    2.60328424e+02
   282.0000 0.03496354    2.44342699e+02
   282.5000 0.03502553    2.29877593e+02
   283.0000 0.03508753    2.16758685e+02
   283.5000 0.03514952    2.04834375e+02
   284.0000 0.03521151    1.93972736e+02
   284.5000 0.03527350    1.84058780e+02
   285.0000 0.03533550    1.74992104e+02
   285.5000 0.03539749    1.66684874e+02
   286.0000 0.03545948    1.59060093e+02
   286.5000 0.03552147    1.52050130e+02
   287.0000 0.03558346    1.45595455e+02
   287.5000 0.03564546    1.39643562e+02
   288.0000 0.03570745    1.34148049e+02
   288.5000 0.03576944    1.29067829e+02
   289.0000 0.03583143    1.24366455e+02
   289.5000 0.03589342    1.20011542e+02
   290.0000 0.03595542    1.15974265e+02
   290.5000 0.03601741    1.12228935e+02
   291.0000 0.03607940    1.08752628e+02
   291.5000 0.03614139    1.05524867e+02
   292.0000 0.03620338    1.02527347e+02
   292.5000 0.03626538    9.97436963e+01
   293.0000 0.03632737    9.71592727e+01
   293.5000 0.03638936    9.47609840e+01
   294.0000 0.03645135    9.25371348e+01
   294.5000 0.03651335    9.04772935e+01
   295.0000 0.03657534    8.85721778e+01
   295.5000 0.03663733    8.68135568e+01
   296.0000 0.03669932    8.51941666e+01
   296.5000 0.03676131    8.37076400e+01
   297.0000 0.03682331    8.23484468e+01
   297.5000 0.03688530    8.11118459e+01
   298.0000 0.03694729    7.99938463e+01
   298.5000 0.03700928    7.89911784e+01
   299.0000 0.03707127    7.81012740e+01
   299.5000 0.03713327    7.73222552e+01
   300.0000 0.03719526    7.66529320e+01
   300.5000 0.03725725    7.60928099e+01
   301.0000 0.03731924    7.56421059e+01
   301.5000 0.03738123    7.53017752e+01
   302.0000 0.03744323    7.50735491e+01
   302.5000 0.03750522    7.49599844e+01
   303.0000 0.03756721    7.49645271e+01
   303.5000 0.03762920    7.50915903e+01
   304.0000 0.03769119    7.53466506e+01
   304.5000 0.03775319    7.57363638e+01
   305.0000 0.03781518    7.62687041e+01
   305.5000 0.03787717    7.69531298e+01
   306.0000 0.03793916    7.78007810e+01
   306.5000 0.03800116    7.88247128e+01
   307.0000 0.03806315    8.00401714e+01
   307.5000 0.03812514    8.14649200e+01
   308.0000 0.03818713    8.31196204e+01
   308.5000 0.03824912    8.50282803e+01
   309.0000 0.03831112    8.72187739e+01
   309.5000 0.03837311    8.97234419e+01
   310.0000 0.03843510    9.25797782e+01
   310.5000 0.03849709    9.58312006e+01
   311.0000 0.03855908    9.95278961e+01
   311.5000 0.03862108    1.03727714e+02
   312.0000 0.03868307    1.08497047e+02
   312.5000 0.03874506    1.13911597e+02
   313.0000 0.03880705    1.20056845e+02
   313.5000 0.03886904    1.27027914e+02
   314.0000 0.03893104    1.34928356e+02
   314.5000 0.03899303    1.43867106e+02
   315.0000 0.03905502    1.53952508e+02
   315.5000 0.03911701    1.65281860e+02
   316.0000 0.03917901    1.77924469e+02
   316.5000 0.03924100    1.91895933e+02
   317.0000 0.03930299    2.07121738e+02
   317.5000 0.03936498    2.23390145e+02
   318.0000 0.03942697    2.40298738e+02
   318.5000 0.03948897    2.57206962e+02
   319.0000 0.03955096    2.73217419e+02
   319.5000 0.03961295    2.87216693e+02
   320.0000 0.03967494    2.98001679e+02
   320.5000 0.03973693    3.04489585e+02
   321.0000 0.03979893    3.05961771e+02
   321.5000 0.03986092    3.02251162e+02
   322.0000 0.03992291    2.93788639e+02
   322.5000 0.03998490    2.81485809e+02
   323.0000 0.04004689    2.66510039e+02
   323.5000 0.04010889    2.50046397e+02
   324.0000 0.04017088    2.33122182e+02
   324.5000 0.04023287    2.16521004e+02
   325.0000 0.04029486    2.00772632e+02
   325.5000 0.04035686    1.86188093e+02
   326.0000 0.04041885    1.72911997e+02
   326.5000 0.04048084    1.60974118e+02
   327.0000 0.04054283    1.50331916e+02
   327.5000 0.04060482    1.40901984e+02
   328.0000 0.04066682    1.32581569e+02
   328.5000 0.04072881    1.25262334e+02
   329.0000 0.04079080    1.18838597e+02
   329.5000 0.04085279    1.13211839e+02
   330.0000 0.04091478    1.08292835e+02
   330.5000 0.04097678    1.04002331e+02
   331.0000 0.04103877    1.00270876e+02
   331.5000 0.04110076    9.70382237e+01
   332.0000 0.04116275    9.42525201e+01
   332.5000 0.04122474    9.18694438e+01
   333.0000 0.04128674    8.98513649e+01
   333.5000 0.04134873    8.81665752e+01
   334.0000 0.04141072    8.67886038e+01
   334.5000 0.04147271    8.56956275e+01
   335.0000 0.04153470    8.48699737e+01
   335.5000 0.04159670    8.42977110e+01
   336.0000 0.04165869    8.39683220e+01
   336.5000 0.04172068    8.38744524e+01
   337.0000 0.04178267    8.40117299e+01
   337.5000 0.04184467    8.43786501e+01
   338.0000 0.04190666    8.49765254e+01
   338.5000 0.04196865    8.58094951e+01
   339.0000 0.04203064    8.68845969e+01
   339.5000 0.04209263    8.82118984e+01
   340.0000 0.04215463    8.98046918e+01
   340.5000 0.04221662    9.16797511e+01
   341.0000 0.04227861    9.38576513e+01
   341.5000 0.04234060    9.63631487e+01
   342.0000 0.04240259    9.92256105e+01
   342.5000 0.04246459    1.02479478e+02
   343.0000 0.04252658    1.06164724e+02
   343.5000 0.04258857    1.10327247e+02
   344.0000 0.04265056    1.15019085e+02
   344.5000 0.04271255    1.20298282e+02
   345.0000 0.04277455    1.26228123e+02
   345.5000 0.04283654    1.32875327e+02
   346.0000 0.04289853    1.40306591e+02
   346.5000 0.04296052    1.48582663e+02
   347.0000 0.04302252    1.57748963e+02
   347.5000 0.04308451    1.67821769e+02
   348.0000 0.04314650    1.78769483e+02
   348.5000 0.04320849    1.90489930e+02
   349.0000 0.04327048    2.02787557e+02
   349.5000 0.04333248    2.15358734e+02
   350.0000 0.04339447    2.27797946e+02
   350.5000 0.04345646    2.39638642e+02
   351.0000 0.04351845    2.50434765e+02
   351.5000 0.04358044    2.59870378e+02
   352.0000 0.04364244    2.67862818e+02
   352.5000 0.04370443    2.74616606e+02
   353.0000 0.04376642    2.80603286e+02
   353.5000 0.04382841    2.86477894e+02
   354.0000 0.04389040    2.92970347e+02
   354.5000 0.04395240    3.00791922e+02
   355.0000 0.04401439    3.10578179e+02
   355.5000 0.04407638    3.22867607e+02
   356.0000 0.04413837    3.38102203e+02
   356.5000 0.04420037    3.56633317e+02
   357.0000 0.04426236    3.78718636e+02
   357.5000 0.04432435    4.04499859e+02
   358.0000 0.04438634    4.33953666e+02
   358.5000 0.04444833    4.66811916e+02
   359.0000 0.04451033    5.02453084e+02
   359.5000 0.04457232    5.39778997e+02
   360.0000 0.04463431    5.77111086e+02
   360.5000 0.04469630    6.12165342e+02
   361.0000 0.04475829    6.42180924e+02
   361.5000 0.04482029    6.64258068e+02
   362.0000 0.04488228    6.75884352e+02
   362.5000 0.04494427    6.75510711e+02
   363.0000 0.04500626    6.62954212e+02
   363.5000 0.04506825    6.39442036e+02
   364.0000 0.04513025    6.07274994e+02
   364.5000 0.04519224    5.69268721e+02
   365.0000 0.04525423    5.28199876e+02
   365.5000 0.04531622    4.86420995e+02
   366.0000 0.04537821    4.45689141e+02
   366.5000 0.04544021    4.07164639e+02
   367.0000 0.04550220    3.71505617e+02
   367.5000 0.04556419    3.38994772e+02
   368.0000 0.04562618    3.09659700e+02
   368.5000 0.04568818    2.83369978e+02
   369.0000 0.04575017    2.59907922e+02
   369.5000 0.04581216    2.39016415e+02
   370.0000 0.04587415    2.20429148e+02
   370.5000 0.04593614    2.03888457e+02
   371.0000 0.04599814    1.89154864e+02
   371.5000 0.04606013    1.76011366e+02
   372.0000 0.04612212    1.64264547e+02
   372.5000 0.04618411    1.53743861e+02
   373.0000 0.04624610    1.44299990e+02
   373.5000 0.04630810    1.35802764e+02
   374.0000 0.04637009    1.28138995e+02
   374.5000 0.04643208    1.21210374e+02
   375.0000 0.04649407    1.14931532e+02
   375.5000 0.04655606    1.09228293e+02
   376.0000 0.04661806    1.04036142e+02
   376.5000 0.04668005    9.92988821e+01
   377.0000 0.04674204    9.49674790e+01
   377.5000 0.04680403    9.09990651e+01
   378.0000 0.04686603    8.73560868e+01
   378.5000 0.04692802    8.40055753e+01
   379.0000 0.04699001    8.09185228e+01
   379.5000 0.04705200    7.80693500e+01
   380.0000 0.04711399    7.54354506e+01
   380.5000 0.04717599    7.29968018e+01
   381.0000 0.04723798    7.07356299e+01
   381.5000 0.04729997    6.86361241e+01
   382.0000 0.04736196    6.66841902e+01
   382.5000 0.04742395    6.48672382e+01
   383.0000 0.04748595    6.31739998e+01
   383.5000 0.04754794    6.15943699e+01
   384.0000 0.04760993    6.01192700e+01
   384.5000 0.04767192    5.87405287e+01
   385.0000 0.04773391    5.74507790e+01
   385.5000 0.04779591    5.62433679e+01
   386.0000 0.04785790    5.51122777e+01
   386.5000 0.04791989    5.40520577e+01
   387.0000 0.04798188    5.30577630e+01
   387.5000 0.04804388    5.21249027e+01
   388.0000 0.04810587    5.12493923e+01
   388.5000 0.04816786    5.04275134e+01
   389.0000 0.04822985    4.96558774e+01
   389.5000 0.04829184    4.89313932e+01
   390.0000 0.04835384    4.82512391e+01
   390.5000 0.04841583    4.76128378e+01
   391.0000 0.04847782    4.70138340e+01
   391.5000 0.04853981    4.64520746e+01
   392.0000 0.04860180    4.59255914e+01
   392.5000 0.04866380    4.54325851e+01
   393.0000 0.04872579    4.49714117e+01
   393.5000 0.04878778    4.45405700e+01
   394.0000 0.04884977    4.41386908e+01
   394.5000 0.04891176    4.37645267e+01
   395.0000 0.04897376    4.34169440e+01
   395.5000 0.04903575    4.30949147e+01
   396.0000 0.04909774    4.27975097e+01
   396.5000 0.04915973    4.25238932e+01
   397.0000 0.04922172    4.22733172e+01
   397.5000 0.04928372    4.20451172e+01
   398.0000 0.04934571    4.18387082e+01
   398.5000 0.04940770    4.16535817e+01
   399.0000 0.04946969    4.14893032e+01
   399.5000 0.04953169    4.13455095e+01
   400.0000 0.04959368    4.12219080e+01
   400.5000 0.04965567    4.11182749e+01
   401.0000 0.04971766    4.10344553e+01
   401.5000 0.04977965    4.09703631e+01
   402.0000 0.04984165    4.09259814e+01
   402.5000 0.04990364    4.09013636e+01
   403.0000 0.04996563    4.08966356e+01
   403.5000 0.05002762    4.09119976e+01
   404.0000 0.05008961    4.09477273e+01
   404.5000 0.05015161    4.10041836e+01
   405.0000 0.05021360    4.10818111e+01
   405.5000 0.05027559    4.11811453e+01
   406.0000 0.05033758    4.13028192e+01
   406.5000 0.05039957    4.14475700e+01
   407.0000 0.05046157    4.16162484e+01
   407.5000 0.05052356    4.18098279e+01
   408.0000 0.05058555    4.20294162e+01
   408.5000 0.05064754    4.22762688e+01
   409.0000 0.05070954    4.25518034e+01
   409.5000 0.05077153    4.28576178e+01
   410.0000 0.05083352    4.31955097e+01
   410.5000 0.05089551    4.35674997e+01
   411.0000 0.05095750    4.39758578e+01
   411.5000 0.05101950    4.44231341e+01
   412.0000 0.05108149    4.49121943e+01
   412.5000 0.05114348    4.54462604e+01
   413.0000 0.05120547    4.60289579e+01
   413.5000 0.05126746    4.66643716e+01
   414.0000 0.05132946    4.73571086e+01
   414.5000 0.05139145    4.81123736e+01
   415.0000 0.05145344    4.89360551e+01
   415.5000 0.05151543    4.98348269e+01
   416.0000 0.05157742    5.08162668e+01
   416.5000 0.05163942    5.18889949e+01
   417.0000 0.05170141    5.30628358e+01
   417.5000 0.05176340    5.43490089e+01
   418.0000 0.05182539    5.57603497e+01
   418.5000 0.05188739    5.73115699e+01
   419.0000 0.05194938    5.90195589e+01
   419.5000 0.05201137    6.09037336e+01
   420.0000 0.05207336    6.29864409e+01
   420.5000 0.05213535    6.52934147e+01
   421.0000 0.05219735    6.78542886e+01
   421.5000 0.05225934    7.07031533e+01
   422.0000 0.05232133    7.38791407e+01
   422.5000 0.05238332    7.74269928e+01
   423.0000 0.05244531    8.13975402e+01
   423.5000 0.05250731    8.58479625e+01
   424.0000 0.05256930    9.08416197e+01
   424.5000 0.05263129    9.64471181e+01
   425.0000 0.05269328    1.02736099e+02
   425.5000 0.05275527    1.09778992e+02
   426.0000 0.05281727    1.17637691e+02
   426.5000 0.05287926    1.26353805e+02
   427.0000 0.05294125    1.35931026e+02
   427.5000 0.05300324    1.46310504e+02
   428.0000 0.05306523    1.57339532e+02
   428.5000 0.05312723    1.68737056e+02
   429.0000 0.05318922    1.80064912e+02
   429.5000 0.05325121    1.90720454e+02
   430.0000 0.05331320    1.99970517e+02
   430.5000 0.05337520    2.07041613e+02
   431.0000 0.05343719    2.11261072e+02
   431.5000 0.05349918    2.12212466e+02
   432.0000 0.05356117    2.09845813e+02
   432.5000 0.05362316    2.04492176e+02
   433.0000 0.05368516    1.96775485e+02
   433.5000 0.05374715    1.87462894e+02
   434.0000 0.05380914    1.77314717e+02
   434.5000 0.05387113    1.66978821e+02
   435.0000 0.05393312    1.56942695e+02
   435.5000 0.05399512    1.47531995e+02
   436.0000 0.05405711    1.38935642e+02
   436.5000 0.05411910    1.31240117e+02
   437.0000 0.05418109    1.24462274e+02
   437.5000 0.05424308    1.18575979e+02
   438.0000 0.05430508    1.13531616e+02
   438.5000 0.05436707    1.09269373e+02
   439.0000 0.05442906    1.05727727e+02
   439.5000 0.05449105    1.02848548e+02
   440.0000 0.05455305    1.00579954e+02
   440.5000 0.05461504    9.88777518e+01
   441.0000 0.05467703    9.77060304e+01
   441.5000 0.05473902    9.70373060e+01
   442.0000 0.05480101    9.68524496e+01
   442.5000 0.05486301    9.71405625e+01
   443.0000 0.05492500    9.78988892e+01
   443.5000 0.05498699    9.91328285e+01
   444.0000 0.05504898    1.00856074e+02
   444.5000 0.05511097    1.03090899e+02
   445.0000 0.05517297    1.05868594e+02
   445.5000 0.05523496    1.09230032e+02
   446.0000 0.05529695    1.13226339e+02
   446.5000 0.05535894    1.17919599e+02
   447.0000 0.05542093    1.23383463e+02
   447.5000 0.05548293    1.29703473e+02
   448.0000 0.05554492    1.36976757e+02
   448.5000 0.05560691    1.45310563e+02
   449.0000 0.05566890    1.54818823e+02
   449.5000 0.05573090    1.65615520e+02
   450.0000 0.05579289    1.77803190e+02
   450.5000 0.05585488    1.91454327e+02
   451.0000 0.05591687    2.06583200e+02
   451.5000 0.05597886    2.23105994e+02
   452.0000 0.05604086    2.40789188e+02
   452.5000 0.05610285    2.59190961e+02
   453.0000 0.05616484    2.77609029e+02
   453.5000 0.05622683    2.95059820e+02
   454.0000 0.05628882    3.10322650e+02
   454.5000 0.05635082    3.22077509e+02
   455.0000 0.05641281    3.29134687e+02
   455.5000 0.05647480    3.30702024e+02
   456.0000 0.05653679    3.26591004e+02
   456.5000 0.05659878    3.17268739e+02
   457.0000 0.05666078    3.03730529e+02
   457.5000 0.05672277    2.87253749e+02
   458.0000 0.05678476    2.69136747e+02
   458.5000 0.05684675    2.50505946e+02
   459.0000 0.05690874    2.32221073e+02
   459.5000 0.05697074    2.14863591e+02
   460.0000 0.05703273    1.98774950e+02
   460.5000 0.05709472    1.84113874e+02
   461.0000 0.05715671    1.70912928e+02
   461.5000 0.05721871    1.59125181e+02
   462.0000 0.05728070    1.48658753e+02
   462.5000 0.05734269    1.39400438e+02
   463.0000 0.05740468    1.31230844e+02
   463.5000 0.05746667    1.24033446e+02
   464.0000 0.05752867    1.17699542e+02
   464.5000 0.05759066    1.12130603e+02
   465.0000 0.05765265    1.07239018e+02
   465.5000 0.05771464    1.02947918e+02
   466.0000 0.05777663    9.91905138e+01
   466.5000 0.05783863    9.59092168e+01
   467.0000 0.05790062    9.30546900e+01
   467.5000 0.05796261    9.05849317e+01
   468.0000 0.05802460    8.84644334e+01
   468.5000 0.05808659    8.66634335e+01
   469.0000 0.05814859    8.51572770e+01
   469.5000 0.05821058    8.39258777e+01
   470.0000 0.05827257    8.29532796e+01
   470.5000 0.05833456    8.22273112e+01
   471.0000 0.05839656    8.17393265e+01
   471.5000 0.05845855    8.14840276e+01
   472.0000 0.05852054    8.14593650e+01
   472.5000 0.05858253    8.16665128e+01
   473.0000 0.05864452    8.21099183e+01
   473.5000 0.05870652    8.27974262e+01
   474.0000 0.05876851    8.37404779e+01
   474.5000 0.05883050    8.49543877e+01
   475.0000 0.05889249    8.64586978e+01
   475.5000 0.05895448    8.82776075e+01
   476.0000 0.05901648    9.04404721e+01
   476.5000 0.05907847    9.29823517e+01
   477.0000 0.05914046    9.59445753e+01
   477.5000 0.05920245    9.93752545e+01
   478.0000 0.05926444    1.03329634e+02
   478.5000 0.05932644    1.07870092e+02
   479.0000 0.05938843    1.13065481e+02
   479.5000 0.05945042    1.18989356e+02
   480.0000 0.05951241    1.25716361e+02
   480.5000 0.05957441    1.33315796e+02
   481.0000 0.05963640    1.41841015e+02
   481.5000 0.05969839    1.51313081e+02
   482.0000 0.05976038    1.61697208e+02
   482.5000 0.05982237    1.72871484e+02
   483.0000 0.05988437    1.84589963e+02
   483.5000 0.05994636    1.96447109e+02
   484.0000 0.06000835    2.07857678e+02
   484.5000 0.06007034    2.18072687e+02
   485.0000 0.06013233    2.26251849e+02
   485.5000 0.06019433    2.31597794e+02
   486.0000 0.06025632    2.33526224e+02
   486.5000 0.06031831    2.31813792e+02
   487.0000 0.06038030    2.26659338e+02
   487.5000 0.06044229    2.18628956e+02
   488.0000 0.06050429    2.08511441e+02
   488.5000 0.06056628    1.97147606e+02
   489.0000 0.06062827    1.85292967e+02
   489.5000 0.06069026    1.73541700e+02
   490.0000 0.06075225    1.62307938e+02
   490.5000 0.06081425    1.51844429e+02
   491.0000 0.06087624    1.42277643e+02
   491.5000 0.06093823    1.33644846e+02
   492.0000 0.06100022    1.25925763e+02
   492.5000 0.06106222    1.19066563e+02
   493.0000 0.06112421    1.12996557e+02
   493.5000 0.06118620    1.07639063e+02
   494.0000 0.06124819    1.02918012e+02
   494.5000 0.06131018    9.87616611e+01
   495.0000 0.06137218    9.51044211e+01
   495.5000 0.06143417    9.18875267e+01
   496.0000 0.06149616    8.90590236e+01
   496.5000 0.06155815    8.65733857e+01
   497.0000 0.06162014    8.43909532e+01
   497.5000 0.06168214    8.24773073e+01
   498.0000 0.06174413    8.08026483e+01
   498.5000 0.06180612    7.93412111e+01
   499.0000 0.06186811    7.80707350e+01
   499.5000 0.06193010    7.69719941e+01
   500.0000 0.06199210    7.60283871e+01
   500.5000 0.06205409    7.52255814e+01
   501.0000 0.06211608    7.45512092e+01
   501.5000 0.06217807    7.39946067e+01
   502.0000 0.06224007    7.35465923e+01
   502.5000 0.06230206    7.31992791e+01
   503.0000 0.06236405    7.29459153e+01
   503.5000 0.06242604    7.27807507e+01
   504.0000 0.06248803    7.26989234e+01
   504.5000 0.06255003    7.26963659e+01
   505.0000 0.06261202    7.27697269e+01
   505.5000 0.06267401    7.29163066e+01
   506.0000 0.06273600    7.31340054e+01
   506.5000 0.06279799    7.34212821e+01
   507.0000 0.06285999    7.37771231e+01
   507.5000 0.06292198    7.42010200e+01
   508.0000 0.06298397    7.46929561e+01
   508.5000 0.06304596    7.52534007e+01
   509.0000 0.06310795    7.58833119e+01
   509.5000 0.06316995    7.65841470e+01
   510.0000 0.06323194    7.73578818e+01
   510.5000 0.06329393    7.82070385e+01
   511.0000 0.06335592    7.91347234e+01
   511.5000 0.06341792    8.01446751e+01
   512.0000 0.06347991    8.12413244e+01
   512.5000 0.06354190    8.24298684e+01
   513.0000 0.06360389    8.37163582e+01
   513.5000 0.06366588    8.51078057e+01
   514.0000 0.06372788    8.66123079e+01
   514.5000 0.06378987    8.82391955e+01
   515.0000 0.06385186    8.99992041e+01
   515.5000 0.06391385    9.19046733e+01
   516.0000 0.06397584    9.39697735e+01
   516.5000 0.06403784    9.62107603e+01
   517.0000 0.06409983    9.86462529e+01
   517.5000 0.06416182    1.01297526e+02
   518.0000 0.06422381    1.04188793e+02
   518.5000 0.06428580    1.07347455e+02
   519.0000 0.06434780    1.10804235e+02
   519.5000 0.06440979    1.14593110e+02
   520.0000 0.06447178    1.18750878e+02
   520.5000 0.06453377    1.23316100e+02
   521.0000 0.06459576    1.28327071e+02
   521.5000 0.06465776    1.33818291e+02
   522.0000 0.06471975    1.39814815e+02
   522.5000 0.06478174    1.46323772e+02
   523.0000 0.06484373    1.53322539e+02
   523.5000 0.06490573    1.60743759e+02
   524.0000 0.06496772    1.68458961e+02
   524.5000 0.06502971    1.76265194e+02
   525.0000 0.06509170    1.83882303e+02
   525.5000 0.06515369    1.90970469e+02
   526.0000 0.06521569    1.97174871e+02
   526.5000 0.06527768    2.02194258e+02
   527.0000 0.06533967    2.05854984e+02
   527.5000 0.06540166    2.08161664e+02
   528.0000 0.06546365    2.09301123e+02
   528.5000 0.06552565    2.09597817e+02
   529.0000 0.06558764    2.09441757e+02
   529.5000 0.06564963    2.09218155e+02
   530.0000 0.06571162    2.09259328e+02
   530.5000 0.06577361    2.09824111e+02
   531.0000 0.06583561    2.11098896e+02
   531.5000 0.06589760    2.13210706e+02
   532.0000 0.06595959    2.16244274e+02
   532.5000 0.06602158    2.20258269e+02
   533.0000 0.06608358    2.25298627e+02
   533.5000 0.06614557    2.31408662e+02
   534.0000 0.06620756    2.38636436e+02
   534.5000 0.06626955    2.47040112e+02
   535.0000 0.06633154    2.56691994e+02
   535.5000 0.06639354    2.67681814e+02
   536.0000 0.06645553    2.80119711e+02
   536.5000 0.06651752    2.94139192e+02
   537.0000 0.06657951    3.09900314e+02
   537.5000 0.06664150    3.27593226e+02
   538.0000 0.06670350    3.47442161e+02
   538.5000 0.06676549    3.69709881e+02
   539.0000 0.06682748    3.94702525e+02
   539.5000 0.06688947    4.22774623e+02
   540.0000 0.06695146    4.54333858e+02
   540.5000 0.06701346    4.89844805e+02
   541.0000 0.06707545    5.29830325e+02
   541.5000 0.06713744    5.74868508e+02
   542.0000 0.06719943    6.25581835e+02
   542.5000 0.06726143    6.82613595e+02
   543.0000 0.06732342    7.46584447e+02
   543.5000 0.06738541    8.18019669e+02
   544.0000 0.06744740    8.97235812e+02
   544.5000 0.06750939    9.84176037e+02
   545.0000 0.06757139    1.07818953e+03
   545.5000 0.06763338    1.17776672e+03
   546.0000 0.06769537    1.28027266e+03
   546.5000 0.06775736    1.38176343e+03
   547.0000 0.06781935    1.47700900e+03
   547.5000 0.06788135    1.55984603e+03
   548.0000 0.06794334    1.62390930e+03
   548.5000 0.06800533    1.66364349e+03
   549.0000 0.06806732    1.67534339e+03
   549.5000 0.06812931    1.65790912e+03
   550.0000 0.06819131    1.61307576e+03
   550.5000 0.06825330    1.54504542e+03
   551.0000 0.06831529    1.45964175e+03
   551.5000 0.06837728    1.36325409e+03
   552.0000 0.06843927    1.26187740e+03
   552.5000 0.06850127    1.16046623e+03
   553.0000 0.06856326    1.06266391e+03
   553.5000 0.06862525    9.70835722e+02
   554.0000 0.06868724    8.86278715e+02
   554.5000 0.06874924    8.09492367e+02
   555.0000 0.06881123    7.40435166e+02
   555.5000 0.06887322    6.78732760e+02
   556.0000 0.06893521    6.23830472e+02
   556.5000 0.06899720    5.75096691e+02
   557.0000 0.06905920    5.31888268e+02
   557.5000 0.06912119    4.93588848e+02
   558.0000 0.06918318    4.59629100e+02
   558.5000 0.06924517    4.29495418e+02
   559.0000 0.06930716    4.02731689e+02
   559.5000 0.06936916    3.78937111e+02
   560.0000 0.06943115    3.57762005e+02
   560.5000 0.06949314    3.38902775e+02
   561.0000 0.06955513    3.22096723e+02
   561.5000 0.06961712    3.07117079e+02
   562.0000 0.06967912    2.93768460e+02
   562.5000 0.06974111    2.81882817e+02
   563.0000 0.06980310    2.71315902e+02
   563.5000 0.06986509    2.61944218e+02
   564.0000 0.06992709    2.53662425e+02
   564.5000 0.06998908    2.46381156e+02
   565.0000 0.07005107    2.40025189e+02
   565.5000 0.07011306    2.34531954e+02
   566.0000 0.07017505    2.29850319e+02
   566.5000 0.07023705    2.25939641e+02
   567.0000 0.07029904    2.22769045e+02
   567.5000 0.07036103    2.20316927e+02
   568.0000 0.07042302    2.18570657e+02
   568.5000 0.07048501    2.17526474e+02
   569.0000 0.07054701    2.17189587e+02
   569.5000 0.07060900    2.17574453e+02
   570.0000 0.07067099    2.18705271e+02
   570.5000 0.07073298    2.20616669e+02
   571.0000 0.07079497    2.23354609e+02
   571.5000 0.07085697    2.26977495e+02
   572.0000 0.07091896    2.31557497e+02
   572.5000 0.07098095    2.37182036e+02
   573.0000 0.07104294    2.43955379e+02
   573.5000 0.07110494    2.52000220e+02
   574.0000 0.07116693    2.61458992e+02
   574.5000 0.07122892    2.72494550e+02
   575.0000 0.07129091    2.85289546e+02
   575.5000 0.07135290    3.00043491e+02
   576.0000 0.07141490    3.16965923e+02
   576.5000 0.07147689    3.36263374e+02
   577.0000 0.07153888    3.58116918e+02
   577.5000 0.07160087    3.82646178e+02
   578.0000 0.07166286    4.09855275e+02
   578.5000 0.07172486    4.39557254e+02
   579.0000 0.07178685    4.71277808e+02
   579.5000 0.07184884    5.04148920e+02
   580.0000 0.07191083    5.36819741e+02
   580.5000 0.07197282    5.67432960e+02
   581.0000 0.07203482    5.93728502e+02
   581.5000 0.07209681    6.13321123e+02
   582.0000 0.07215880    6.24135861e+02
   582.5000 0.07222079    6.24887690e+02
   583.0000 0.07228278    6.15420568e+02
   583.5000 0.07234478    5.96750058e+02
   584.0000 0.07240677    5.70788714e+02
   584.5000 0.07246876    5.39883588e+02
   585.0000 0.07253075    5.06354830e+02
   585.5000 0.07259275    4.72172862e+02
   586.0000 0.07265474    4.38813304e+02
   586.5000 0.07271673    4.07254162e+02
   587.0000 0.07277872    3.78053649e+02
   587.5000 0.07284071    3.51455519e+02
   588.0000 0.07290271    3.27489395e+02
   588.5000 0.07296470    3.06051909e+02
   589.0000 0.07302669    2.86965927e+02
   589.5000 0.07308868    2.70020642e+02
   590.0000 0.07315067    2.54996976e+02
   590.5000 0.07321267    2.41682579e+02
   591.0000 0.07327466    2.29879902e+02
   591.5000 0.07333665    2.19409847e+02
   592.0000 0.07339864    2.10112753e+02
   592.5000 0.07346063    2.01847846e+02
   593.0000 0.07352263    1.94491901e+02
   593.5000 0.07358462    1.87937538e+02
   594.0000 0.07364661    1.82091436e+02
   594.5000 0.07370860    1.76872600e+02
   595.0000 0.07377060    1.72210754e+02
   595.5000 0.07383259    1.68044901e+02
   596.0000 0.07389458    1.64322054e+02
   596.5000 0.07395657    1.60996126e+02
   597.0000 0.07401856    1.58026977e+02
   597.5000 0.07408056    1.55379584e+02
   598.0000 0.07414255    1.53023344e+02
   598.5000 0.07420454    1.50931464e+02
   599.0000 0.07426653    1.49080452e+02
   599.5000 0.07432852    1.47449676e+02
   600.0000 0.07439052    1.46020986e+02
   600.5000 0.07445251    1.44778393e+02
   601.0000 0.07451450    1.43707800e+02
   601.5000 0.07457649    1.42796758e+02
   602.0000 0.07463848    1.42034270e+02
   602.5000 0.07470048    1.41410614e+02
   603.0000 0.07476247    1.40917198e+02
   603.5000 0.07482446    1.40546424e+02
   604.0000 0.07488645    1.40291584e+02
   604.5000 0.07494845    1.40146759e+02
   605.0000 0.07501044    1.40106737e+02
   605.5000 0.07507243    1.40166944e+02
   606.0000 0.07513442    1.40323375e+02
   606.5000 0.07519641    1.40572549e+02
   607.0000 0.07525841    1.40911453e+02
   607.5000 0.07532040    1.41337506e+02
   608.0000 0.07538239    1.41848525e+02
   608.5000 0.07544438    1.42442691e+02
   609.0000 0.07550637    1.43118525e+02
   609.5000 0.07556837    1.43874867e+02
   610.0000 0.07563036    1.44710852e+02
   610.5000 0.07569235    1.45625901e+02
   611.0000 0.07575434    1.46619701e+02
   611.5000 0.07581633    1.47692198e+02
   612.0000 0.07587833    1.48843586e+02
   612.5000 0.07594032    1.50074303e+02
   613.0000 0.07600231    1.51385024e+02
   613.5000 0.07606430    1.52776657e+02
   614.0000 0.07612629    1.54250346e+02
   614.5000 0.07618829    1.55807466e+02
   615.0000 0.07625028    1.57449629e+02
   615.5000 0.07631227    1.59178685e+02
   616.0000 0.07637426    1.60996730e+02
   616.5000 0.07643626    1.62906109e+02
   617.0000 0.07649825    1.64909426e+02
   617.5000 0.07656024    1.67009555e+02
   618.0000 0.07662223    1.69209649e+02
   618.5000 0.07668422    1.71513156e+02
   619.0000 0.07674622    1.73923833e+02
   619.5000 0.07680821    1.76445764e+02
   620.0000 0.07687020    1.79083379e+02
   620.5000 0.07693219    1.81841475e+02
   621.0000 0.07699418    1.84725242e+02
   621.5000 0.07705618    1.87740292e+02
   622.0000 0.07711817    1.90892684e+02
   622.5000 0.07718016    1.94188964e+02
   623.0000 0.07724215    1.97636197e+02
   623.5000 0.07730414    2.01242013e+02
   624.0000 0.07736614    2.05014648e+02
   624.5000 0.07742813    2.08963001e+02
   625.0000 0.07749012    2.13096687e+02
   625.5000 0.07755211    2.17426101e+02
   626.0000 0.07761411    2.21962488e+02
   626.5000 0.07767610    2.26718021e+02
   627.0000 0.07773809    2.31705887e+02
   627.5000 0.07780008    2.36940388e+02
   628.0000 0.07786207    2.42437043e+02
   628.5000 0.07792407    2.48212715e+02
   629.0000 0.07798606    2.54285741e+02
   629.5000 0.07804805    2.60676090e+02
   630.0000 0.07811004    2.67405528e+02
   630.5000 0.07817203    2.74497812e+02
   631.0000 0.07823403    2.81978908e+02
   631.5000 0.07829602    2.89877231e+02
   632.0000 0.07835801    2.98223923e+02
   632.5000 0.07842000    3.07053168e+02
   633.0000 0.07848199    3.16402538e+02
   633.5000 0.07854399    3.26313405e+02
   634.0000 0.07860598    3.36831393e+02
   634.5000 0.07866797    3.48006904e+02
   635.0000 0.07872996    3.59895713e+02
   635.5000 0.07879196    3.72559658e+02
   636.0000 0.07885395    3.86067423e+02
   636.5000 0.07891594    4.00495442e+02
   637.0000 0.07897793    4.15928945e+02
   637.5000 0.07903992    4.32463159e+02
   638.0000 0.07910192    4.50204705e+02
   638.5000 0.07916391    4.69273213e+02
   639.0000 0.07922590    4.89803200e+02
   639.5000 0.07928789    5.11946253e+02
   640.0000 0.07934988    5.35873582e+02
   640.5000 0.07941188    5.61778993e+02
   641.0000 0.07947387    5.89882364e+02
   641.5000 0.07953586    6.20433715e+02
   642.0000 0.07959785    6.53717969e+02
   642.5000 0.07965984    6.90060527e+02
   643.0000 0.07972184    7.29833781e+02
   643.5000 0.07978383    7.73464716e+02
   644.0000 0.07984582    8.21443749e+02
   644.5000 0.07990781    8.74334943e+02
   645.0000 0.07996980    9.32787727e+02
   645.5000 0.08003180    9.97550156e+02
   646.0000 0.08009379    1.06948363e+03
   646.5000 0.08015578    1.14957880e+03
   647.0000 0.08021777    1.23897179e+03
   647.5000 0.08027977    1.33895961e+03
   648.0000 0.08034176    1.45101183e+03
   648.5000 0.08040375    1.57677479e+03
   649.0000 0.08046574    1.71806093e+03
   649.5000 0.08052773    1.87681291e+03
   650.0000 0.08058973    2.05502587e+03
   650.5000 0.08065172    2.25460435e+03
   651.0000 0.08071371    2.47712203e+03
   651.5000 0.08077570    2.72344515e+03
   652.0000 0.08083769    2.99318048e+03
   652.5000 0.08089969    3.28392726e+03
   653.0000 0.08096168    3.59036644e+03
   653.5000 0.08102367    3.90333107e+03
   654.0000 0.08108566    4.20917014e+03
   654.5000 0.08114765    4.48989585e+03
   655.0000 0.08120965    4.72464976e+03
   655.5000 0.08127164    4.89273528e+03
   656.0000 0.08133363    4.97775286e+03
   656.5000 0.08139562    4.97152240e+03
   657.0000 0.08145762    4.87614267e+03
   657.5000 0.08151961    4.70321935e+03
   658.0000 0.08158160    4.47067178e+03
   658.5000 0.08164359    4.19861095e+03
   659.0000 0.08170558    3.90585320e+03
   659.5000 0.08176758    3.60788288e+03
   660.0000 0.08182957    3.31621769e+03
   660.5000 0.08189156    3.03867553e+03
   661.0000 0.08195355    2.78002725e+03
   661.5000 0.08201554    2.54271280e+03
   662.0000 0.08207754    2.32748374e+03
   662.5000 0.08213953    2.13393592e+03
   663.0000 0.08220152    1.96093151e+03
   663.5000 0.08226351    1.80691875e+03
   664.0000 0.08232550    1.67016165e+03
   664.5000 0.08238750    1.54889474e+03
   665.0000 0.08244949    1.44141980e+03
   665.5000 0.08251148    1.34616018e+03
   666.0000 0.08257347    1.26168628e+03
   666.5000 0.08263547    1.18672241e+03
   667.0000 0.08269746    1.12014259e+03
   667.5000 0.08275945    1.06096025e+03
   668.0000 0.08282144    1.00831513e+03
   668.5000 0.08288343    9.61459353e+02
   669.0000 0.08294543    9.19743895e+02
   669.5000 0.08300742    8.82605954e+02
   670.0000 0.08306941    8.49557601e+02
   670.5000 0.08313140    8.20175731e+02
   671.0000 0.08319339    7.94093283e+02
   671.5000 0.08325539    7.70991649e+02
   672.0000 0.08331738    7.50594145e+02
   672.5000 0.08337937    7.32660415e+02
   673.0000 0.08344136    7.16981654e+02
   673.5000 0.08350335    7.03376527e+02
   674.0000 0.08356535    6.91687703e+02
   674.5000 0.08362734    6.81778897e+02
   675.0000 0.08368933    6.73532359e+02
   675.5000 0.08375132    6.66846744e+02
   676.0000 0.08381331    6.61635296e+02
   676.5000 0.08387531    6.57824321e+02
   677.0000 0.08393730    6.55351895e+02
   677.5000 0.08399929    6.54166774e+02
   678.0000 0.08406128    6.54227493e+02
   678.5000 0.08412328    6.55501618e+02
   679.0000 0.08418527    6.57965135e+02
   679.5000 0.08424726    6.61601969e+02
   680.0000 0.08430925    6.66403609e+02
   680.5000 0.08437124    6.72368842e+02
   681.0000 0.08443324    6.79503577e+02
   681.5000 0.08449523    6.87820760e+02
   682.0000 0.08455722    6.97340382e+02
   682.5000 0.08461921    7.08089565e+02
   683.0000 0.08468120    7.20102733e+02
   683.5000 0.08474320    7.33421880e+02
   684.0000 0.08480519    7.48096916e+02
   684.5000 0.08486718    7.64186118e+02
   685.0000 0.08492917    7.81756681e+02
   685.5000 0.08499116    8.00885377e+02
   686.0000 0.08505316    8.21659348e+02
   686.5000 0.08511515    8.44177022e+02
   687.0000 0.08517714    8.68549197e+02
   687.5000 0.08523913    8.94900289e+02
   688.0000 0.08530113    9.23369783e+02
   688.5000 0.08536312    9.54113913e+02
   689.0000 0.08542511    9.87307594e+02
   689.5000 0.08548710    1.02314667e+03
   690.0000 0.08554909    1.06185048e+03
   690.5000 0.08561109    1.10366490e+03
   691.0000 0.08567308    1.14886572e+03
   691.5000 0.08573507    1.19776277e+03
   692.0000 0.08579706    1.25070447e+03
   692.5000 0.08585905    1.30808334e+03
   693.0000 0.08592105    1.37034223e+03
   693.5000 0.08598304    1.43798174e+03
   694.0000 0.08604503    1.51156874e+03
   694.5000 0.08610702    1.59174645e+03
   695.0000 0.08616901    1.67924612e+03
   695.5000 0.08623101    1.77490085e+03
   696.0000 0.08629300    1.87966159e+03
   696.5000 0.08635499    1.99461604e+03
   697.0000 0.08641698    2.12101065e+03
   697.5000 0.08647898    2.26027629e+03
   698.0000 0.08654097    2.41405812e+03
   698.5000 0.08660296    2.58425002e+03
   699.0000 0.08666495    2.77303409e+03
   699.5000 0.08672694    2.98292510e+03
   700.0000 0.08678894    3.21681976e+03
   700.5000 0.08685093    3.47804932e+03
   701.0000 0.08691292    3.77043301e+03
   701.5000 0.08697491    4.09832680e+03
   702.0000 0.08703690    4.46665869e+03
   702.5000 0.08709890    4.88093488e+03
   703.0000 0.08716089    5.34719222e+03
   703.5000 0.08722288    5.87185817e+03
   704.0000 0.08728487    6.46146022e+03
   704.5000 0.08734686    7.12210165e+03
   705.0000 0.08740886    7.85859221e+03
   705.5000 0.08747085    8.67310081e+03
   706.0000 0.08753284    9.56320297e+03
   706.5000 0.08759483    1.05192714e+04
   707.0000 0.08765682    1.15213656e+04
   707.5000 0.08771882    1.25361776e+04
   708.0000 0.08778081    1.35151860e+04
   708.5000 0.08784280    1.43957404e+04
   709.0000 0.08790479    1.51068430e+04
   709.5000 0.08796679    1.55802120e+04
   710.0000 0.08802878    1.57646422e+04
   710.5000 0.08809077    1.56388672e+04
   711.0000 0.08815276    1.52173890e+04
   711.5000 0.08821475    1.45464719e+04
   712.0000 0.08827675    1.36922461e+04
   712.5000 0.08833874    1.27261957e+04
   713.0000 0.08840073    1.17132052e+04
   713.5000 0.08846272    1.07047392e+04
   714.0000 0.08852471    9.73696963e+03
   714.5000 0.08858671    8.83220278e+03
   715.0000 0.08864870    8.00180926e+03
   715.5000 0.08871069    7.24938350e+03
   716.0000 0.08877268    6.57347169e+03
   716.5000 0.08883467    5.96965166e+03
   717.0000 0.08889667    5.43198845e+03
   717.5000 0.08895866    4.95398539e+03
   718.0000 0.08902065    4.52916559e+03
   718.5000 0.08908264    4.15140043e+03
   719.0000 0.08914464    3.81507346e+03
   719.5000 0.08920663    3.51514236e+03
   720.0000 0.08926862    3.24714079e+03
   720.5000 0.08933061    3.00714741e+03
   721.0000 0.08939260    2.79173872e+03
   721.5000 0.08945460    2.59793612e+03
   722.0000 0.08951659    2.42315280e+03
   722.5000 0.08957858    2.26514374e+03
   723.0000 0.08964057    2.12196020e+03
   723.5000 0.08970256    1.99190930e+03
   724.0000 0.08976456    1.87351861e+03
   724.5000 0.08982655    1.76550539e+03
   725.0000 0.08988854    1.66675020e+03
   725.5000 0.08995053    1.57627412e+03
   726.0000 0.09001252    1.49321936e+03
   726.5000 0.09007452    1.41683267e+03
   727.0000 0.09013651    1.34645109e+03
   727.5000 0.09019850    1.28148993e+03
   728.0000 0.09026049    1.22143232e+03
   728.5000 0.09032249    1.16582037e+03
   729.0000 0.09038448    1.11424762e+03
   729.5000 0.09044647    1.06635245e+03
   730.0000 0.09050846    1.02181249e+03
   730.5000 0.09057045    9.80339830e+02
   731.0000 0.09063245    9.41676792e+02
   731.5000 0.09069444    9.05592361e+02
   732.0000 0.09075643    8.71879050e+02
   732.5000 0.09081842    8.40350187e+02
   733.0000 0.09088041    8.10837556e+02
   733.5000 0.09094241    7.83189332e+02
   734.0000 0.09100440    7.57268287e+02
   734.5000 0.09106639    7.32950200e+02
   735.0000 0.09112838    7.10122471e+02
   735.5000 0.09119037    6.88682890e+02
   736.0000 0.09125237    6.68538544e+02
   736.5000 0.09131436    6.49604860e+02
   737.0000 0.09137635    6.31804762e+02
   737.5000 0.09143834    6.15067949e+02
   738.0000 0.09150033    5.99330302e+02
   738.5000 0.09156233    5.84533412e+02
   739.0000 0.09162432    5.70624209e+02
   739.5000 0.09168631    5.57554643e+02
   740.0000 0.09174830    5.45281350e+02
   740.5000 0.09181030    5.33765289e+02
   741.0000 0.09187229    5.22971331e+02
   741.5000 0.09193428    5.12867865e+02
   742.0000 0.09199627    5.03426449e+02
   742.5000 0.09205826    4.94621543e+02
   743.0000 0.09212026    4.86430307e+02
   743.5000 0.09218225    4.78832469e+02
   744.0000 0.09224424    4.71810222e+02
   744.5000 0.09230623    4.65348153e+02
   745.0000 0.09236822    4.59433191e+02
   745.5000 0.09243022    4.54054563e+02
   746.0000 0.09249221    4.49203774e+02
   746.5000 0.09255420    4.44874597e+02
   747.0000 0.09261619    4.41063085e+02
   747.5000 0.09267818    4.37767594e+02
   748.0000 0.09274018    4.34988841e+02
   748.5000 0.09280217    4.32729967e+02
   749.0000 0.09286416    4.30996640e+02
   749.5000 0.09292615    4.29797178e+02
   750.0000 0.09298815    4.29142701e+02
   750.5000 0.09305014    4.29047323e+02
   751.0000 0.09311213    4.29528378e+02
   751.5000 0.09317412    4.30606684e+02
   752.0000 0.09323611    4.32306865e+02
   752.5000 0.09329811    4.34657723e+02
   753.0000 0.09336010    4.37692671e+02
   753.5000 0.09342209    4.41450244e+02
   754.0000 0.09348408    4.45974694e+02
   754.5000 0.09354607    4.51316683e+02
   755.0000 0.09360807    4.57534086e+02
   755.5000 0.09367006    4.64692937e+02
   756.0000 0.09373205    4.72868520e+02
   756.5000 0.09379404    4.82146653e+02
   757.0000 0.09385603    4.92625174e+02
   757.5000 0.09391803    5.04415681e+02
   758.0000 0.09398002    5.17645558e+02
   758.5000 0.09404201    5.32460326e+02
   759.0000 0.09410400    5.49026384e+02
   759.5000 0.09416600    5.67534164e+02
   760.0000 0.09422799    5.88201768e+02
   760.5000 0.09428998    6.11279103e+02
   761.0000 0.09435197    6.37052535e+02
   761.5000 0.09441396    6.65850014e+02
   762.0000 0.09447596    6.98046541e+02
   762.5000 0.09453795    7.34069740e+02
   763.0000 0.09459994    7.74405025e+02
   763.5000 0.09466193    8.19599589e+02
   764.0000 0.09472392    8.70263946e+02
   764.5000 0.09478592    9.27069175e+02
   765.0000 0.09484791    9.90737366e+02
   765.5000 0.09490990    1.06202226e+03
   766.0000 0.09497189    1.14167723e+03
   766.5000 0.09503388    1.23040938e+03
   767.0000 0.09509588    1.32882294e+03
   767.5000 0.09515787    1.43736235e+03
   768.0000 0.09521986    1.55627464e+03
   768.5000 0.09528185    1.68561374e+03
   769.0000 0.09534384    1.82529565e+03
   769.5000 0.09540584    1.97517274e+03
   770.0000 0.09546783    2.13503681e+03
   770.5000 0.09552982    2.30442320e+03
   771.0000 0.09559181    2.48211941e+03
   771.5000 0.09565381    2.66539584e+03
   772.0000 0.09571580    2.84913512e+03
   772.5000 0.09577779    3.02518302e+03
   773.0000 0.09583978    3.18233214e+03
   773.5000 0.09590177    3.30731569e+03
   774.0000 0.09596377    3.38693649e+03
   774.5000 0.09602576    3.41094670e+03
   775.0000 0.09608775    3.37472933e+03
   775.5000 0.09614974    3.28064942e+03
   776.0000 0.09621173    3.13744749e+03
   776.5000 0.09627373    2.95799025e+03
   777.0000 0.09633572    2.75640306e+03
   777.5000 0.09639771    2.54564031e+03
   778.0000 0.09645970    2.33605428e+03
   778.5000 0.09652169    2.13496210e+03
   779.0000 0.09658369    1.94689527e+03
   779.5000 0.09664568    1.77417128e+03
   780.0000 0.09670767    1.61752468e+03
   780.5000 0.09676966    1.47665813e+03
   781.0000 0.09683166    1.35066544e+03
   781.5000 0.09689365    1.23832900e+03
   782.0000 0.09695564    1.13831472e+03
   782.5000 0.09701763    1.04929163e+03
   783.0000 0.09707962    9.69999560e+02
   783.5000 0.09714162    8.99283093e+02
   784.0000 0.09720361    8.36104457e+02
   784.5000 0.09726560    7.79544089e+02
   785.0000 0.09732759    7.28794368e+02
   785.5000 0.09738958    6.83150026e+02
   786.0000 0.09745158    6.41997319e+02
   786.5000 0.09751357    6.04803170e+02
   787.0000 0.09757556    5.71104931e+02
   787.5000 0.09763755    5.40501068e+02
   788.0000 0.09769954    5.12642877e+02
   788.5000 0.09776154    4.87227237e+02
   789.0000 0.09782353    4.63990316e+02
   789.5000 0.09788552    4.42702153e+02
   790.0000 0.09794751    4.23161999e+02
   790.5000 0.09800951    4.05194322e+02
   791.0000 0.09807150    3.88645355e+02
   791.5000 0.09813349    3.73380103e+02
   792.0000 0.09819548    3.59279703e+02
   792.5000 0.09825747    3.46239027e+02
   793.0000 0.09831947    3.34164433e+02
   793.5000 0.09838146    3.22971560e+02
   794.0000 0.09844345    3.12583072e+02
   794.5000 0.09850544    3.02926326e+02
   795.0000 0.09856743    2.93931028e+02
   795.5000 0.09862943    2.85527170e+02
   796.0000 0.09869142    2.77643793e+02
   796.5000 0.09875341    2.70209318e+02
   797.0000 0.09881540    2.63154107e+02
   797.5000 0.09887739    2.56415214e+02
   798.0000 0.09893939    2.49942088e+02
   798.5000 0.09900138    2.43700976e+02
   799.0000 0.09906337    2.37675857e+02
   799.5000 0.09912536    2.31865297e+02
   800.0000 0.09918736    2.26276583e+02
   800.5000 0.09924935    2.20919496e+02
   801.0000 0.09931134    2.15801656e+02
   801.5000 0.09937333    2.10926136e+02
   802.0000 0.09943532    2.06291020e+02
   802.5000 0.09949732    2.01890123e+02
   803.0000 0.09955931    1.97714191e+02
   803.5000 0.09962130    1.93752086e+02
   804.0000 0.09968329    1.89991765e+02
   804.5000 0.09974528    1.86420996e+02
   805.0000 0.09980728    1.83027821e+02
   805.5000 0.09986927    1.79800839e+02
   806.0000 0.09993126    1.76729355e+02
   806.5000 0.09999325    1.73803436e+02
   807.0000 0.10005524    1.71013918e+02
   807.5000 0.10011724    1.68352375e+02
   808.0000 0.10017923    1.65811079e+02
   808.5000 0.10024122    1.63382943e+02
   809.0000 0.10030321    1.61061466e+02
   809.5000 0.10036520    1.58840686e+02
   810.0000 0.10042720    1.56715126e+02
   810.5000 0.10048919    1.54679751e+02
   811.0000 0.10055118    1.52729924e+02
   811.5000 0.10061317    1.50861374e+02
   812.0000 0.10067517    1.49070160e+02
   812.5000 0.10073716    1.47352642e+02
   813.0000 0.10079915    1.45705456e+02
   813.5000 0.10086114    1.44125493e+02
   814.0000 0.10092313    1.42609874e+02
   814.5000 0.10098513    1.41155937e+02
   815.0000 0.10104712    1.39761217e+02
   815.5000 0.10110911    1.38423437e+02
   816.0000 0.10117110    1.37140489e+02
   816.5000 0.10123309    1.35910431e+02
   817.0000 0.10129509    1.34731470e+02
   817.5000 0.10135708    1.33601959e+02
   818.0000 0.10141907    1.32520388e+02
   818.5000 0.10148106    1.31485377e+02
   819.0000 0.10154305    1.30495675e+02
   819.5000 0.10160505    1.29550149e+02
   820.0000 0.10166704    1.28647788e+02
   820.5000 0.10172903    1.27787698e+02
   821.0000 0.10179102    1.26969100e+02
   821.5000 0.10185302    1.26191328e+02
   822.0000 0.10191501    1.25453838e+02
   822.5000 0.10197700    1.24756199e+02
   823.0000 0.10203899    1.24098104e+02
   823.5000 0.10210098    1.23479371e+02
   824.0000 0.10216298    1.22899948e+02
   824.5000 0.10222497    1.22359925e+02
   825.0000 0.10228696    1.21859535e+02
   825.5000 0.10234895    1.21399174e+02
   826.0000 0.10241094    1.20979407e+02
   826.5000 0.10247294    1.20600988e+02
   827.0000 0.10253493    1.20264879e+02
   827.5000 0.10259692    1.19972272e+02
   828.0000 0.10265891    1.19724613e+02
   828.5000 0.10272090    1.19523641e+02
   829.0000 0.10278290    1.19371418e+02
   829.5000 0.10284489    1.19270375e+02
   830.0000 0.10290688    1.19223367e+02
   830.5000 0.10296887    1.19233727e+02
   831.0000 0.10303087    1.19305340e+02
   831.5000 0.10309286    1.19442718e+02
   832.0000 0.10315485    1.19651097e+02
   832.5000 0.10321684    1.19936530e+02
   833.0000 0.10327883    1.20306002e+02
   833.5000 0.10334083    1.20767540e+02
   834.0000 0.10340282    1.21330322e+02
   834.5000 0.10346481    1.22004765e+02
   835.0000 0.10352680    1.22802567e+02
   835.5000 0.10358879    1.23736655e+02
   836.0000 0.10365079    1.24820976e+02
   836.5000 0.10371278    1.26070024e+02
   837.0000 0.10377477    1.27497948e+02
   837.5000 0.10383676    1.29117037e+02
   838.0000 0.10389875    1.30935326e+02
   838.5000 0.10396075    1.32953042e+02
   839.0000 0.10402274    1.35157739e+02
   839.5000 0.10408473    1.37518267e+02
   840.0000 0.10414672    1.39978444e+02
   840.5000 0.10420871    1.42452365e+02
   841.0000 0.10427071    1.44824566e+02
   841.5000 0.10433270    1.46958752e+02
   842.0000 0.10439469    1.48717261e+02
   842.5000 0.10445668    1.49988920e+02
   843.0000 0.10451868    1.50717046e+02
   843.5000 0.10458067    1.50916176e+02
   844.0000 0.10464266    1.50669689e+02
   844.5000 0.10470465    1.50109517e+02
   845.0000 0.10476664    1.49387307e+02
   845.5000 0.10482864    1.48648211e+02
   846.0000 0.10489063    1.48014200e+02
   846.5000 0.10495262    1.47577897e+02
   847.0000 0.10501461    1.47404134e+02
   847.5000 0.10507660    1.47535522e+02
   848.0000 0.10513860    1.47999096e+02
   848.5000 0.10520059    1.48812406e+02
   849.0000 0.10526258    1.49988398e+02
   849.5000 0.10532457    1.51539057e+02
   850.0000 0.10538656    1.53478015e+02
   850.5000 0.10544856    1.55822416e+02
   851.0000 0.10551055    1.58594303e+02
   851.5000 0.10557254    1.61821726e+02
   852.0000 0.10563453    1.65539726e+02
   852.5000 0.10569653    1.69791322e+02
   853.0000 0.10575852    1.74628554e+02
   853.5000 0.10582051    1.80113653e+02
   854.0000 0.10588250    1.86320357e+02
   854.5000 0.10594449    1.93335375e+02
   855.0000 0.10600649    2.01259974e+02
   855.5000 0.10606848    2.10211612e+02
   856.0000 0.10613047    2.20325450e+02
   856.5000 0.10619246    2.31755475e+02
   857.0000 0.10625445    2.44674761e+02
   857.5000 0.10631645    2.59274088e+02
   858.0000 0.10637844    2.75757751e+02
   858.5000 0.10644043    2.94334722e+02
   859.0000 0.10650242    3.15202599e+02
   859.5000 0.10656441    3.38520812e+02
   860.0000 0.10662641    3.64368868e+02
   860.5000 0.10668840    3.92685424e+02
   861.0000 0.10675039    4.23186146e+02
   861.5000 0.10681238    4.55264462e+02
   862.0000 0.10687438    4.87891648e+02
   862.5000 0.10693637    5.19551282e+02
   863.0000 0.10699836    5.48262303e+02
   863.5000 0.10706035    5.71748799e+02
   864.0000 0.10712234    5.87781294e+02
   864.5000 0.10718434    5.94634905e+02
   865.0000 0.10724633    5.91516979e+02
   865.5000 0.10730832    5.78783272e+02
   866.0000 0.10737031    5.57839439e+02
   866.5000 0.10743230    5.30775752e+02
   867.0000 0.10749430    4.99899292e+02
   867.5000 0.10755629    4.67335330e+02
   868.0000 0.10761828    4.34790422e+02
   868.5000 0.10768027    4.03478488e+02
   869.0000 0.10774226    3.74159171e+02
   869.5000 0.10780426    3.47229729e+02
   870.0000 0.10786625    3.22827414e+02
   870.5000 0.10792824    3.00919273e+02
   871.0000 0.10799023    2.81371310e+02
   871.5000 0.10805222    2.63997251e+02
   872.0000 0.10811422    2.48590634e+02
   872.5000 0.10817621    2.34944568e+02
   873.0000 0.10823820    2.22863014e+02
   873.5000 0.10830019    2.12166511e+02
   874.0000 0.10836219    2.02694433e+02
   874.5000 0.10842418    1.94305168e+02
   875.0000 0.10848617    1.86875107e+02
   875.5000 0.10854816    1.80296976e+02
   876.0000 0.10861015    1.74477801e+02
   876.5000 0.10867215    1.69336621e+02
   877.0000 0.10873414    1.64801980e+02
   877.5000 0.10879613    1.60809139e+02
   878.0000 0.10885812    1.57296984e+02
   878.5000 0.10892011    1.54204702e+02
   879.0000 0.10898211    1.51468548e+02
   879.5000 0.10904410    1.49019420e+02
   880.0000 0.10910609    1.46782392e+02
   880.5000 0.10916808    1.44679499e+02
   881.0000 0.10923007    1.42636400e+02
   881.5000 0.10929207    1.40591911e+02
   882.0000 0.10935406    1.38507271e+02
   882.5000 0.10941605    1.36371138e+02
   883.0000 0.10947804    1.34197751e+02
   883.5000 0.10954004    1.32019024e+02
   884.0000 0.10960203    1.29874031e+02
   884.5000 0.10966402    1.27799774e+02
   885.0000 0.10972601    1.25825442e+02
   885.5000 0.10978800    1.23970359e+02
   886.0000 0.10985000    1.22244542e+02
   886.5000 0.10991199    1.20650569e+02
   887.0000 0.10997398    1.19185757e+02
   887.5000 0.11003597    1.17844101e+02
   888.0000 0.11009796    1.16617776e+02
   888.5000 0.11015996    1.15498192e+02
   889.0000 0.11022195    1.14476679e+02
   889.5000 0.11028394    1.13544900e+02
   890.0000 0.11034593    1.12695072e+02
   890.5000 0.11040792    1.11920063e+02
   891.0000 0.11046992    1.11213423e+02
   891.5000 0.11053191    1.10569359e+02
   892.0000 0.11059390    1.09982694e+02
   892.5000 0.11065589    1.09448813e+02
   893.0000 0.11071789    1.08963610e+02
   893.5000 0.11077988    1.08523428e+02
   894.0000 0.11084187    1.08125014e+02
   894.5000 0.11090386    1.07765469e+02
   895.0000 0.11096585    1.07442206e+02
   895.5000 0.11102785    1.07152918e+02
   896.0000 0.11108984    1.06895544e+02
   896.5000 0.11115183    1.06668239e+02
   897.0000 0.11121382    1.06469355e+02
   897.5000 0.11127581    1.06297416e+02
   898.0000 0.11133781    1.06151103e+02
   898.5000 0.11139980    1.06029237e+02
   899.0000 0.11146179    1.05930768e+02
   899.5000 0.11152378    1.05854761e+02
   900.0000 0.11158577    1.05800387e+02
   900.5000 0.11164777    1.05766916e+02
   901.0000 0.11170976    1.05753710e+02
   901.5000 0.11177175    1.05760214e+02
   902.0000 0.11183374    1.05785958e+02
   902.5000 0.11189573    1.05830545e+02
   903.0000 0.11195773    1.05893654e+02
   903.5000 0.11201972    1.05975037e+02
   904.0000 0.11208171    1.06074515e+02
   904.5000 0.11214370    1.06191979e+02
   905.0000 0.11220570    1.06327393e+02
   905.5000 0.11226769    1.06480791e+02
   906.0000 0.11232968    1.06652279e+02
   906.5000 0.11239167    1.06842042e+02
   907.0000 0.11245366    1.07050343e+02
   907.5000 0.11251566    1.07277530e+02
   908.0000 0.11257765    1.07524041e+02
   908.5000 0.11263964    1.07790412e+02
   909.0000 0.11270163    1.08077284e+02
   909.5000 0.11276362    1.08385414e+02
   910.0000 0.11282562    1.08715686e+02
   910.5000 0.11288761    1.09069125e+02
   911.0000 0.11294960    1.09446915e+02
   911.5000 0.11301159    1.09850413e+02
   912.0000 0.11307358    1.10281180e+02
   912.5000 0.11313558    1.10740997e+02
   913.0000 0.11319757    1.11231901e+02
   913.5000 0.11325956    1.11756221e+02
   914.0000 0.11332155    1.12316615e+02
   914.5000 0.11338355    1.12916119e+02
   915.0000 0.11344554    1.13558202e+02
   915.5000 0.11350753    1.14246829e+02
   916.0000 0.11356952    1.14986529e+02
   916.5000 0.11363151    1.15782477e+02
   917.0000 0.11369351    1.16640578e+02
   917.5000 0.11375550    1.17567559e+02
   918.0000 0.11381749    1.18571059e+02
   918.5000 0.11387948    1.19659712e+02
   919.0000 0.11394147    1.20843200e+02
   919.5000 0.11400347    1.22132267e+02
   920.0000 0.11406546    1.23538647e+02
   920.5000 0.11412745    1.25074875e+02
   921.0000 0.11418944    1.26753920e+02
   921.5000 0.11425143    1.28588623e+02
   922.0000 0.11431343    1.30590919e+02
   922.5000 0.11437542    1.32770984e+02
   923.0000 0.11443741    1.35136559e+02
   923.5000 0.11449940    1.37692942e+02
   924.0000 0.11456140    1.40444218e+02
   924.5000 0.11462339    1.43396057e+02
   925.0000 0.11468538    1.46559614e+02
   925.5000 0.11474737    1.49954934e+02
   926.0000 0.11480936    1.53611430e+02
   926.5000 0.11487136    1.57563280e+02
   927.0000 0.11493335    1.61838979e+02
   927.5000 0.11499534    1.66445912e+02
   928.0000 0.11505733    1.71351820e+02
   928.5000 0.11511932    1.76465622e+02
   929.0000 0.11518132    1.81621202e+02
   929.5000 0.11524331    1.86570157e+02
   930.0000 0.11530530    1.90991852e+02
   930.5000 0.11536729    1.94528610e+02
   931.0000 0.11542928    1.96846747e+02
   931.5000 0.11549128    1.97710526e+02
   932.0000 0.11555327    1.97043036e+02
   932.5000 0.11561526    1.94947344e+02
   933.0000 0.11567725    1.91677906e+02
   933.5000 0.11573924    1.87576160e+02
   934.0000 0.11580124    1.82998165e+02
   934.5000 0.11586323    1.78258614e+02
   935.0000 0.11592522    1.73601406e+02
   935.5000 0.11598721    1.69193940e+02
   936.0000 0.11604921    1.65136304e+02
   936.5000 0.11611120    1.61476606e+02
   937.0000 0.11617319    1.58226655e+02
   937.5000 0.11623518    1.55375128e+02
   938.0000 0.11629717    1.52897430e+02
   938.5000 0.11635917    1.50762506e+02
   939.0000 0.11642116    1.48937228e+02
   939.5000 0.11648315    1.47389050e+02
   940.0000 0.11654514    1.46087471e+02
   940.5000 0.11660713    1.45004744e+02
   941.0000 0.11666913    1.44116117e+02
   941.5000 0.11673112    1.43399797e+02
   942.0000 0.11679311    1.42836778e+02
   942.5000 0.11685510    1.42410592e+02
   943.0000 0.11691709    1.42107043e+02
   943.5000 0.11697909    1.41913944e+02
   944.0000 0.11704108    1.41820875e+02
   944.5000 0.11710307    1.41818962e+02
   945.0000 0.11716506    1.41900686e+02
   945.5000 0.11722706    1.42059720e+02
   946.0000 0.11728905    1.42290788e+02
   946.5000 0.11735104    1.42589549e+02
   947.0000 0.11741303    1.42952502e+02
   947.5000 0.11747502    1.43376913e+02
   948.0000 0.11753702    1.43860749e+02
   948.5000 0.11759901    1.44402642e+02
   949.0000 0.11766100    1.45001859e+02
   949.5000 0.11772299    1.45658283e+02
   950.0000 0.11778498    1.46372422e+02
   950.5000 0.11784698    1.47145413e+02
   951.0000 0.11790897    1.47979053e+02
   951.5000 0.11797096    1.48875843e+02
   952.0000 0.11803295    1.49839041e+02
   952.5000 0.11809494    1.50872739e+02
   953.0000 0.11815694    1.51981951e+02
   953.5000 0.11821893    1.53172730e+02
   954.0000 0.11828092    1.54452290e+02
   954.5000 0.11834291    1.55829159e+02
   955.0000 0.11840491    1.57313339e+02
   955.5000 0.11846690    1.58916482e+02
   956.0000 0.11852889    1.60652051e+02
   956.5000 0.11859088    1.62535463e+02
   957.0000 0.11865287    1.64584147e+02
   957.5000 0.11871487    1.66817476e+02
   958.0000 0.11877686    1.69256439e+02
   958.5000 0.11883885    1.71922906e+02
   959.0000 0.11890084    1.74838231e+02
   959.5000 0.11896283    1.78020870e+02
   960.0000 0.11902483    1.81482584e+02
   960.5000 0.11908682    1.85222760e+02
   961.0000 0.11914881    1.89220555e+02
   961.5000 0.11921080    1.93424982e+02
   962.0000 0.11927279    1.97744184e+02
   962.5000 0.11933479    2.02036831e+02
   963.0000 0.11939678    2.06110757e+02
   963.5000 0.11945877    2.09735069e+02
   964.0000 0.11952076    2.12670067e+02
   964.5000 0.11958275    2.14712407e+02
   965.0000 0.11964475    2.15743063e+02
   965.5000 0.11970674    2.15759127e+02
   966.0000 0.11976873    2.14874671e+02
   966.5000 0.11983072    2.13290271e+02
   967.0000 0.11989272    2.11245397e+02
   967.5000 0.11995471    2.08972710e+02
   968.0000 0.12001670    2.06667229e+02
   968.5000 0.12007869    2.04473372e+02
   969.0000 0.12014068    2.02485783e+02
   969.5000 0.12020268    2.00757702e+02
   970.0000 0.12026467    1.99311673e+02
   970.5000 0.12032666    1.98149538e+02
   971.0000 0.12038865    1.97260412e+02
   971.5000 0.12045064    1.96626457e+02
   972.0000 0.12051264    1.96226769e+02
   972.5000 0.12057463    1.96039822e+02
   973.0000 0.12063662    1.96044897e+02
   973.5000 0.12069861    1.96222845e+02
   974.0000 0.12076060    1.96556427e+02
   974.5000 0.12082260    1.97030393e+02
   975.0000 0.12088459    1.97631415e+02
   975.5000 0.12094658    1.98347952e+02
   976.0000 0.12100857    1.99170077e+02
   976.5000 0.12107057    2.00089295e+02
   977.0000 0.12113256    2.01098379e+02
   977.5000 0.12119455    2.02191203e+02
   978.0000 0.12125654    2.03362608e+02
   978.5000 0.12131853    2.04608274e+02
   979.0000 0.12138053    2.05924615e+02
   979.5000 0.12144252    2.07308689e+02
   980.0000 0.12150451    2.08758117e+02
   980.5000 0.12156650    2.10271019e+02
   981.0000 0.12162849    2.11845962e+02
   981.5000 0.12169049    2.13481908e+02
   982.0000 0.12175248    2.15178186e+02
   982.5000 0.12181447    2.16934454e+02
   983.0000 0.12187646    2.18750679e+02
   983.5000 0.12193845    2.20627119e+02
   984.0000 0.12200045    2.22564311e+02
   984.5000 0.12206244    2.24563060e+02
   985.0000 0.12212443    2.26624439e+02
   985.5000 0.12218642    2.28749790e+02
   986.0000 0.12224842    2.30940728e+02
   986.5000 0.12231041    2.33199150e+02
   987.0000 0.12237240    2.35527253e+02
   987.5000 0.12243439    2.37927553e+02
   988.0000 0.12249638    2.40402908e+02
   988.5000 0.12255838    2.42956556e+02
   989.0000 0.12262037    2.45592145e+02
   989.5000 0.12268236    2.48313788e+02
   990.0000 0.12274435    2.51126114e+02
   990.5000 0.12280634    2.54034334e+02
   991.0000 0.12286834    2.57044319e+02
   991.5000 0.12293033    2.60162690e+02
   992.0000 0.12299232    2.63396915e+02
   992.5000 0.12305431    2.66755431e+02
   993.0000 0.12311630    2.70247763e+02
   993.5000 0.12317830    2.73884663e+02
   994.0000 0.12324029    2.77678242e+02
   994.5000 0.12330228    2.81642085e+02
   995.0000 0.12336427    2.85791330e+02
   995.5000 0.12342626    2.90142662e+02
   996.0000 0.12348826    2.94714147e+02
   996.5000 0.12355025    2.99524821e+02
   997.0000 0.12361224    3.04593846e+02
   997.5000 0.12367423    3.09939046e+02
   998.0000 0.12373623    3.15574507e+02
   998.5000 0.12379822    3.21506924e+02
   999.0000 0.12386021    3.27730419e+02
   999.5000 0.12392220    3.34219799e+02
  1000.0000 0.12398419    3.40922863e+02
  1000.5000 0.12404619    3.47753493e+02
  1001.0000 0.12410818    3.54588753e+02
  1001.5000 0.12417017    3.61274429e+02
  1002.0000 0.12423216    3.67642831e+02
  1002.5000 0.12429415    3.73542796e+02
  1003.0000 0.12435615    3.78874952e+02
  1003.5000 0.12441814    3.83619329e+02
  1004.0000 0.12448013    3.87842930e+02
  1004.5000 0.12454212    3.91683585e+02
  1005.0000 0.12460411    3.95317827e+02
  1005.5000 0.12466611    3.98926408e+02
  1006.0000 0.12472810    4.02668577e+02
  1006.5000 0.12479009    4.06669284e+02
  1007.0000 0.12485208    4.11017442e+02
  1007.5000 0.12491408    4.15770895e+02
  1008.0000 0.12497607    4.20963980e+02
  1008.5000 0.12503806    4.26615046e+02
  1009.0000 0.12510005    4.32732663e+02
  1009.5000 0.12516204    4.39320215e+02
  1010.0000 0.12522404    4.46379005e+02
  1010.5000 0.12528603    4.53910186e+02
  1011.0000 0.12534802    4.61915807e+02
  1011.5000 0.12541001    4.70399278e+02
  1012.0000 0.12547200    4.79365453e+02
  1012.5000 0.12553400    4.88820582e+02
  1013.0000 0.12559599    4.98772345e+02
  1013.5000 0.12565798    5.09230234e+02
  1014.0000 0.12571997    5.20206431e+02
  1014.5000 0.12578196    5.31717202e+02
  1015.0000 0.12584396    5.43784520e+02
  1015.5000 0.12590595    5.56437408e+02
  1016.0000 0.12596794    5.69712485e+02
  1016.5000 0.12602993    5.83653524e+02
  1017.0000 0.12609193    5.98310309e+02
  1017.5000 0.12615392    6.13737361e+02
  1018.0000 0.12621591    6.29993060e+02
  1018.5000 0.12627790    6.47139403e+02
  1019.0000 0.12633989    6.65242347e+02
  1019.5000 0.12640189    6.84372578e+02
  1020.0000 0.12646388    7.04606492e+02
  1020.5000 0.12652587    7.26027303e+02
  1021.0000 0.12658786    7.48726184e+02
  1021.5000 0.12664985    7.72803477e+02
  1022.0000 0.12671185    7.98369960e+02
  1022.5000 0.12677384    8.25548227e+02
  1023.0000 0.12683583    8.54474213e+02
  1023.5000 0.12689782    8.85298913e+02
  1024.0000 0.12695981    9.18190328e+02
  1024.5000 0.12702181    9.53335695e+02
  1025.0000 0.12708380    9.90944057e+02
  1025.5000 0.12714579    1.03124922e+03
  1026.0000 0.12720778    1.07451316e+03
  1026.5000 0.12726977    1.12103002e+03
  1027.0000 0.12733177    1.17113067e+03
  1027.5000 0.12739376    1.22518806e+03
  1028.0000 0.12745575    1.28362339e+03
  1028.5000 0.12751774    1.34691332e+03
  1029.0000 0.12757974    1.41559827e+03
  1029.5000 0.12764173    1.49029209e+03
  1030.0000 0.12770372    1.57169315e+03
  1030.5000 0.12776571    1.66059714e+03
  1031.0000 0.12782770    1.75791160e+03
  1031.5000 0.12788970    1.86467251e+03
  1032.0000 0.12795169    1.98206290e+03
  1032.5000 0.12801368    2.11143362e+03
  1033.0000 0.12807567    2.25432666e+03
  1033.5000 0.12813766    2.41250121e+03
  1034.0000 0.12819966    2.58796343e+03
  1034.5000 0.12826165    2.78300103e+03
  1035.0000 0.12832364    3.00022340e+03
  1035.5000 0.12838563    3.24260675e+03
  1036.0000 0.12844762    3.51353919e+03
  1036.5000 0.12850962    3.81685505e+03
  1037.0000 0.12857161    4.15684077e+03
  1037.5000 0.12863360    4.53818805e+03
  1038.0000 0.12869559    4.96586075e+03
  1038.5000 0.12875759    5.44482515e+03
  1039.0000 0.12881958    5.97956828e+03
  1039.5000 0.12888157    6.57330305e+03
  1040.0000 0.12894356    7.22674967e+03
  1040.5000 0.12900555    7.93641020e+03
  1041.0000 0.12906755    8.69234973e+03
  1041.5000 0.12912954    9.47571047e+03
  1042.0000 0.12919153    1.02565521e+04
  1042.5000 0.12925352    1.09930900e+04
  1043.0000 0.12931551    1.16337507e+04
  1043.5000 0.12937751    1.21232021e+04
  1044.0000 0.12943950    1.24121751e+04
  1044.5000 0.12950149    1.24686715e+04
  1045.0000 0.12956348    1.22863494e+04
  1045.5000 0.12962547    1.18862830e+04
  1046.0000 0.12968747    1.13112393e+04
  1046.5000 0.12974946    1.06151905e+04
  1047.0000 0.12981145    9.85243613e+03
  1047.5000 0.12987344    9.06972082e+03
  1048.0000 0.12993544    8.30247862e+03
  1048.5000 0.12999743    7.57450285e+03
  1049.0000 0.13005942    6.89962736e+03
  1049.5000 0.13012141    6.28414784e+03
  1050.0000 0.13018340    5.72918056e+03
  1050.5000 0.13024540    5.23259412e+03
  1051.0000 0.13030739    4.79043184e+03
  1051.5000 0.13036938    4.39788124e+03
  1052.0000 0.13043137    4.04989231e+03
  1052.5000 0.13049336    3.74154573e+03
  1053.0000 0.13055536    3.46825310e+03
  1053.5000 0.13061735    3.22585008e+03
  1054.0000 0.13067934    3.01062425e+03
  1054.5000 0.13074133    2.81930543e+03
  1055.0000 0.13080332    2.64903618e+03
  1055.5000 0.13086532    2.49733327e+03
  1056.0000 0.13092731    2.36204655e+03
  1056.5000 0.13098930    2.24131879e+03
  1057.0000 0.13105129    2.13354826e+03
  1057.5000 0.13111328    2.03735476e+03
  1058.0000 0.13117528    1.95154905e+03
  1058.5000 0.13123727    1.87510542e+03
  1059.0000 0.13129926    1.80713646e+03
  1059.5000 0.13136125    1.74686945e+03
  1060.0000 0.13142325    1.69362333e+03
  1060.5000 0.13148524    1.64678572e+03
  1061.0000 0.13154723    1.60579020e+03
  1061.5000 0.13160922    1.57009539e+03
  1062.0000 0.13167121    1.53916962e+03
  1062.5000 0.13173321    1.51248728e+03
  1063.0000 0.13179520    1.48954331e+03
  1063.5000 0.13185719    1.46988855e+03
  1064.0000 0.13191918    1.45317951e+03
  1064.5000 0.13198117    1.43922567e+03
  1065.0000 0.13204317    1.42801334e+03
  1065.5000 0.13210516    1.41969432e+03
  1066.0000 0.13216715    1.41454495e+03
  1066.5000 0.13222914    1.41291434e+03
  1067.0000 0.13229113    1.41518160e+03
  1067.5000 0.13235313    1.42173264e+03
  1068.0000 0.13241512    1.43295672e+03
  1068.5000 0.13247711    1.44925679e+03
  1069.0000 0.13253910    1.47106691e+03
  1069.5000 0.13260110    1.49887136e+03
  1070.0000 0.13266309    1.53322235e+03
  1070.5000 0.13272508    1.57475427e+03
  1071.0000 0.13278707    1.62419294e+03
  1071.5000 0.13284906    1.68235720e+03
  1072.0000 0.13291106    1.75014893e+03
  1072.5000 0.13297305    1.82852474e+03
  1073.0000 0.13303504    1.91843939e+03
  1073.5000 0.13309703    2.02074633e+03
  1074.0000 0.13315902    2.13603677e+03
  1074.5000 0.13322102    2.26439590e+03
  1075.0000 0.13328301    2.40505874e+03
  1075.5000 0.13334500    2.55596597e+03
  1076.0000 0.13340699    2.71326261e+03
  1076.5000 0.13346898    2.87085715e+03
  1077.0000 0.13353098    3.02025727e+03
  1077.5000 0.13359297    3.15097100e+03
  1078.0000 0.13365496    3.25171299e+03
  1078.5000 0.13371695    3.31238789e+03
  1079.0000 0.13377895    3.32637169e+03
  1079.5000 0.13384094    3.29223973e+03
  1080.0000 0.13390293    3.21415853e+03
  1080.5000 0.13396492    3.10075062e+03
  1081.0000 0.13402691    2.96297211e+03
  1081.5000 0.13408891    2.81189146e+03
  1082.0000 0.13415090    2.65706765e+03
  1082.5000 0.13421289    2.50576774e+03
  1083.0000 0.13427488    2.36288715e+03
  1083.5000 0.13433687    2.23128590e+03
  1084.0000 0.13439887    2.11228015e+03
  1084.5000 0.13446086    2.00612364e+03
  1085.0000 0.13452285    1.91240309e+03
  1085.5000 0.13458484    1.83033001e+03
  1086.0000 0.13464683    1.75893989e+03
  1086.5000 0.13470883    1.69721939e+03
  1087.0000 0.13477082    1.64418231e+03
  1087.5000 0.13483281    1.59891093e+03
  1088.0000 0.13489480    1.56057529e+03
  1088.5000 0.13495679    1.52843893e+03
  1089.0000 0.13501879    1.50185671e+03
  1089.5000 0.13508078    1.48026827e+03
  1090.0000 0.13514277    1.46318926e+03
  1090.5000 0.13520476    1.45020163e+03
  1091.0000 0.13526676    1.44094360e+03
  1091.5000 0.13532875    1.43509986e+03
  1092.0000 0.13539074    1.43239276e+03
  1092.5000 0.13545273    1.43257519e+03
  1093.0000 0.13551472    1.43542676e+03
  1093.5000 0.13557672    1.44075432e+03
  1094.0000 0.13563871    1.44839724e+03
  1094.5000 0.13570070    1.45823562e+03
  1095.0000 0.13576269    1.47019766e+03
  1095.5000 0.13582468    1.48426200e+03
  1096.0000 0.13588668    1.50045298e+03
  1096.5000 0.13594867    1.51883054e+03
  1097.0000 0.13601066    1.53947888e+03
  1097.5000 0.13607265    1.56249770e+03
  1098.0000 0.13613464    1.58799782e+03
  1098.5000 0.13619664    1.61610089e+03
  1099.0000 0.13625863    1.64694202e+03
  1099.5000 0.13632062    1.68067393e+03
  1100.0000 0.13638261    1.71747164e+03
  1100.5000 0.13644461    1.75753743e+03
  1101.0000 0.13650660    1.80110572e+03
  1101.5000 0.13656859    1.84844802e+03
  1102.0000 0.13663058    1.89987785e+03
  1102.5000 0.13669257    1.95575570e+03
  1103.0000 0.13675457    2.01649363e+03
  1103.5000 0.13681656    2.08255902e+03
  1104.0000 0.13687855    2.15447653e+03
  1104.5000 0.13694054    2.23282656e+03
  1105.0000 0.13700253    2.31823767e+03
  1105.5000 0.13706453    2.41136891e+03
  1106.0000 0.13712652    2.51287662e+03
  1106.5000 0.13718851    2.62335795e+03
  1107.0000 0.13725050    2.74326228e+03
  1107.5000 0.13731249    2.87276199e+03
  1108.0000 0.13737449    3.01157964e+03
  1108.5000 0.13743648    3.15878277e+03
  1109.0000 0.13749847    3.31258583e+03
  1109.5000 0.13756046    3.47023850e+03
  1110.0000 0.13762246    3.62811852e+03
  1110.5000 0.13768445    3.78214680e+03
  1111.0000 0.13774644    3.92855884e+03
  1111.5000 0.13780843    4.06488889e+03
  1112.0000 0.13787042    4.19083495e+03
  1112.5000 0.13793242    4.30862934e+03
  1113.0000 0.13799441    4.42273237e+03
  1113.5000 0.13805640    4.53898583e+03
  1114.0000 0.13811839    4.66357803e+03
  1114.5000 0.13818038    4.80215223e+03
  1115.0000 0.13824238    4.95920678e+03
  1115.5000 0.13830437    5.13774944e+03
  1116.0000 0.13836636    5.33907767e+03
  1116.5000 0.13842835    5.56256896e+03
  1117.0000 0.13849034    5.80544449e+03
  1117.5000 0.13855234    6.06258391e+03
  1118.0000 0.13861433    6.32658886e+03
  1118.5000 0.13867632    6.58836491e+03
  1119.0000 0.13873831    6.83842565e+03
  1119.5000 0.13880030    7.06884645e+03
  1120.0000 0.13886230    7.27537096e+03
  1120.5000 0.13892429    7.45887505e+03
  1121.0000 0.13898628    7.62553410e+03
  1121.5000 0.13904827    7.78563156e+03
  1122.0000 0.13911027    7.95158703e+03
  1122.5000 0.13917226    8.13602098e+03
  1123.0000 0.13923425    8.35043808e+03
  1123.5000 0.13929624    8.60468577e+03
  1124.0000 0.13935823    8.90702956e+03
  1124.5000 0.13942023    9.26457993e+03
  1125.0000 0.13948222    9.68384630e+03
  1125.5000 0.13954421    1.01712826e+04
  1126.0000 0.13960620    1.07337667e+04
  1126.5000 0.13966819    1.13790051e+04
  1127.0000 0.13973019    1.21158733e+04
  1127.5000 0.13979218    1.29547107e+04
  1128.0000 0.13985417    1.39075808e+04
  1128.5000 0.13991616    1.49884978e+04
  1129.0000 0.13997815    1.62136075e+04
  1129.5000 0.14004015    1.76012870e+04
  1130.0000 0.14010214    1.91721004e+04
  1130.5000 0.14016413    2.09485018e+04
  1131.0000 0.14022612    2.29541213e+04
  1131.5000 0.14028812    2.52123840e+04
  1132.0000 0.14035011    2.77441146e+04
  1132.5000 0.14041210    3.05636784e+04
  1133.0000 0.14047409    3.36731568e+04
  1133.5000 0.14053608    3.70541518e+04
  1134.0000 0.14059808    4.06572601e+04
  1134.5000 0.14066007    4.43902796e+04
  1135.0000 0.14072206    4.81080122e+04
  1135.5000 0.14078405    5.16088424e+04
  1136.0000 0.14084604    5.46449127e+04
  1136.5000 0.14090804    5.69513694e+04
  1137.0000 0.14097003    5.82936239e+04
  1137.5000 0.14103202    5.85208714e+04
  1138.0000 0.14109401    5.76056589e+04
  1138.5000 0.14115600    5.56514802e+04
  1139.0000 0.14121800    5.28646950e+04
  1139.5000 0.14127999    4.95040830e+04
  1140.0000 0.14134198    4.58289706e+04
  1140.5000 0.14140397    4.20619329e+04
  1141.0000 0.14146597    3.83712392e+04
  1141.5000 0.14152796    3.48695583e+04
  1142.0000 0.14158995    3.16221367e+04
  1142.5000 0.14165194    2.86584075e+04
  1143.0000 0.14171393    2.59832438e+04
  1143.5000 0.14177593    2.35861465e+04
  1144.0000 0.14183792    2.14479987e+04
  1144.5000 0.14189991    1.95456606e+04
  1145.0000 0.14196190    1.78548963e+04
  1145.5000 0.14202389    1.63521131e+04
  1146.0000 0.14208589    1.50153050e+04
  1146.5000 0.14214788    1.38244879e+04
  1147.0000 0.14220987    1.27618274e+04
  1147.5000 0.14227186    1.18115875e+04
  1148.0000 0.14233385    1.09599868e+04
  1148.5000 0.14239585    1.01950122e+04
  1149.0000 0.14245784    9.50622019e+03
  1149.5000 0.14251983    8.88454410e+03
  1150.0000 0.14258182    8.32211486e+03
  1150.5000 0.14264381    7.81209982e+03
  1151.0000 0.14270581    7.34856038e+03
  1151.5000 0.14276780    6.92632783e+03
  1152.0000 0.14282979    6.54089596e+03
  1152.5000 0.14289178    6.18832876e+03
  1153.0000 0.14295378    5.86518126e+03
  1153.5000 0.14301577    5.56843187e+03
  1154.0000 0.14307776    5.29542456e+03
  1154.5000 0.14313975    5.04381946e+03
  1155.0000 0.14320174    4.81155067e+03
  1155.5000 0.14326374    4.59679013e+03
  1156.0000 0.14332573    4.39791671e+03
  1156.5000 0.14338772    4.21348971e+03
  1157.0000 0.14344971    4.04222607e+03
  1157.5000 0.14351170    3.88298076e+03
  1158.0000 0.14357370    3.73472991e+03
  1158.5000 0.14363569    3.59655617e+03
  1159.0000 0.14369768    3.46763611e+03
  1159.5000 0.14375967    3.34722924e+03
  1160.0000 0.14382166    3.23466850e+03
  1160.5000 0.14388366    3.12935198e+03
  1161.0000 0.14394565    3.03073563e+03
  1161.5000 0.14400764    2.93832702e+03
  1162.0000 0.14406963    2.85167971e+03
  1162.5000 0.14413163    2.77038848e+03
  1163.0000 0.14419362    2.69408499e+03
  1163.5000 0.14425561    2.62243405e+03
  1164.0000 0.14431760    2.55513030e+03
  1164.5000 0.14437959    2.49189528e+03
  1165.0000 0.14444159    2.43247485e+03
  1165.5000 0.14450358    2.37663688e+03
  1166.0000 0.14456557    2.32416923e+03
  1166.5000 0.14462756    2.27487797e+03
  1167.0000 0.14468955    2.22858572e+03
  1167.5000 0.14475155    2.18513030e+03
  1168.0000 0.14481354    2.14436345e+03
  1168.5000 0.14487553    2.10614969e+03
  1169.0000 0.14493752    2.07036536e+03
  1169.5000 0.14499951    2.03689776e+03
  1170.0000 0.14506151    2.00564438e+03
  1170.5000 0.14512350    1.97651220e+03
  1171.0000 0.14518549    1.94941719e+03
  1171.5000 0.14524748    1.92428373e+03
  1172.0000 0.14530948    1.90104425e+03
  1172.5000 0.14537147    1.87963888e+03
  1173.0000 0.14543346    1.86001517e+03
  1173.5000 0.14549545    1.84212784e+03
  1174.0000 0.14555744    1.82593867e+03
  1174.5000 0.14561944    1.81141634e+03
  1175.0000 0.14568143    1.79853632e+03
  1175.5000 0.14574342    1.78728075e+03
  1176.0000 0.14580541    1.77763824e+03
  1176.5000 0.14586740    1.76960349e+03
  1177.0000 0.14592940    1.76317667e+03
  1177.5000 0.14599139    1.75836229e+03
  1178.0000 0.14605338    1.75516735e+03
  1178.5000 0.14611537    1.75359841e+03
  1179.0000 0.14617736    1.75365728e+03
  1179.5000 0.14623936    1.75533505e+03
  1180.0000 0.14630135    1.75860453e+03
  1180.5000 0.14636334    1.76341219e+03
  1181.0000 0.14642533    1.76967174e+03
  1181.5000 0.14648732    1.77726338e+03
  1182.0000 0.14654932    1.78604362e+03
  1182.5000 0.14661131    1.79586879e+03
  1183.0000 0.14667330    1.80663046e+03
  1183.5000 0.14673529    1.81829295e+03
  1184.0000 0.14679729    1.83091837e+03
  1184.5000 0.14685928    1.84466784e+03
  1185.0000 0.14692127    1.85977858e+03
  1185.5000 0.14698326    1.87652801e+03
  1186.0000 0.14704525    1.89519960e+03
  1186.5000 0.14710725    1.91606027e+03
  1187.0000 0.14716924    1.93935185e+03
  1187.5000 0.14723123    1.96529333e+03
  1188.0000 0.14729322    1.99408914e+03
  1188.5000 0.14735521    2.02593948e+03
  1189.0000 0.14741721    2.06105041e+03
  1189.5000 0.14747920    2.09964269e+03
  1190.0000 0.14754119    2.14195941e+03
  1190.5000 0.14760318    2.18827259e+03
  1191.0000 0.14766517    2.23888929e+03
  1191.5000 0.14772717    2.29415754e+03
  1192.0000 0.14778916    2.35447263e+03
  1192.5000 0.14785115    2.42028393e+03
  1193.0000 0.14791314    2.49210261e+03
  1193.5000 0.14797514    2.57051053e+03
  1194.0000 0.14803713    2.65617060e+03
  1194.5000 0.14809912    2.74983887e+03
  1195.0000 0.14816111    2.85237867e+03
  1195.5000 0.14822310    2.96477728e+03
  1196.0000 0.14828510    3.08816537e+03
  1196.5000 0.14834709    3.22383984e+03
  1197.0000 0.14840908    3.37329045e+03
  1197.5000 0.14847107    3.53823084e+03
  1198.0000 0.14853306    3.72063436e+03
  1198.5000 0.14859506    3.92277509e+03
  1199.0000 0.14865705    4.14727429e+03
  1199.5000 0.14871904    4.39715171e+03
  1200.0000 0.14878103    4.67588076e+03
  1200.5000 0.14884302    4.98744448e+03
  1201.0000 0.14890502    5.33638736e+03
  1201.5000 0.14896701    5.72785334e+03
  1202.0000 0.14902900    6.16759463e+03
  1202.5000 0.14909099    6.66192574e+03
  1203.0000 0.14915299    7.21758327e+03
  1203.5000 0.14921498    7.84143157e+03
  1204.0000 0.14927697    8.53992883e+03
  1204.5000 0.14933896    9.31823812e+03
  1205.0000 0.14940095    1.01788446e+04
  1205.5000 0.14946295    1.11195439e+04
  1206.0000 0.14952494    1.21307398e+04
  1206.5000 0.14958693    1.31921981e+04
  1207.0000 0.14964892    1.42698133e+04
  1207.5000 0.14971091    1.53135581e+04
  1208.0000 0.14977291    1.62584003e+04
  1208.5000 0.14983490    1.70300659e+04
  1209.0000 0.14989689    1.75563698e+04
  1209.5000 0.14995888    1.77822069e+04
  1210.0000 0.15002087    1.76832982e+04
  1210.5000 0.15008287    1.72728323e+04
  1211.0000 0.15014486    1.65978222e+04
  1211.5000 0.15020685    1.57269469e+04
  1212.0000 0.15026884    1.47353140e+04
  1212.5000 0.15033083    1.36916663e+04
  1213.0000 0.15039283    1.26509098e+04
  1213.5000 0.15045482    1.16519012e+04
  1214.0000 0.15051681    1.07188075e+04
  1214.5000 0.15057880    9.86413491e+03
  1215.0000 0.15064080    9.09205593e+03
  1215.5000 0.15070279    8.40130611e+03
  1216.0000 0.15076478    7.78740561e+03
  1216.5000 0.15082677    7.24422036e+03
  1217.0000 0.15088876    6.76498577e+03
  1217.5000 0.15095076    6.34293524e+03
  1218.0000 0.15101275    5.97165709e+03
  1218.5000 0.15107474    5.64527451e+03
  1219.0000 0.15113673    5.35851545e+03
  1219.5000 0.15119872    5.10671762e+03
  1220.0000 0.15126072    4.88579771e+03
  1220.5000 0.15132271    4.69220298e+03
  1221.0000 0.15138470    4.52285634e+03
  1221.5000 0.15144669    4.37510095e+03
  1222.0000 0.15150868    4.24664798e+03
  1222.5000 0.15157068    4.13552890e+03
  1223.0000 0.15163267    4.04005283e+03
  1223.5000 0.15169466    3.95876879e+03
  1224.0000 0.15175665    3.89043224e+03
  1224.5000 0.15181865    3.83397498e+03
  1225.0000 0.15188064    3.78847752e+03
  1225.5000 0.15194263    3.75314270e+03
  1226.0000 0.15200462    3.72726963e+03
  1226.5000 0.15206661    3.71022736e+03
  1227.0000 0.15212861    3.70142884e+03
  1227.5000 0.15219060    3.70030770e+03
  1228.0000 0.15225259    3.70630328e+03
  1228.5000 0.15231458    3.71886150e+03
  1229.0000 0.15237657    3.73745905e+03
  1229.5000 0.15243857    3.76165170e+03
  1230.0000 0.15250056    3.79113567e+03
  1230.5000 0.15256255    3.82579887e+03
  1231.0000 0.15262454    3.86573813e+03
  1231.5000 0.15268653    3.91123248e+03
  1232.0000 0.15274853    3.96268426e+03
  1232.5000 0.15281052    4.02055185e+03
  1233.0000 0.15287251    4.08529528e+03
  1233.5000 0.15293450    4.15734282e+03
  1234.0000 0.15299650    4.23707494e+03
  1234.5000 0.15305849    4.32481610e+03
  1235.0000 0.15312048    4.42082510e+03
  1235.5000 0.15318247    4.52527821e+03
  1236.0000 0.15324446    4.63824473e+03
  1236.5000 0.15330646    4.75966159e+03
  1237.0000 0.15336845    4.88932198e+03
  1237.5000 0.15343044    5.02690041e+03
  1238.0000 0.15349243    5.17203613e+03
  1238.5000 0.15355442    5.32448115e+03
  1239.0000 0.15361642    5.48428631e+03
  1239.5000 0.15367841    5.65196468e+03
  1240.0000 0.15374040    5.82856520e+03
  1240.5000 0.15380239    6.01562581e+03
  1241.0000 0.15386438    6.21503426e+03
  1241.5000 0.15392638    6.42886341e+03
  1242.0000 0.15398837    6.65924380e+03
  1242.5000 0.15405036    6.90830327e+03
  1243.0000 0.15411235    7.17816980e+03
  1243.5000 0.15417434    7.47101723e+03
  1244.0000 0.15423634    7.78913256e+03
  1244.5000 0.15429833    8.13499007e+03
  1245.0000 0.15436032    8.51132534e+03
  1245.5000 0.15442231    8.92120749e+03
  1246.0000 0.15448431    9.36811056e+03
  1246.5000 0.15454630    9.85598596e+03
  1247.0000 0.15460829    1.03893378e+04
  1247.5000 0.15467028    1.09733016e+04
  1248.0000 0.15473227    1.16137255e+04
  1248.5000 0.15479427    1.23172501e+04
  1249.0000 0.15485626    1.30913796e+04
  1249.5000 0.15491825    1.39445309e+04
  1250.0000 0.15498024    1.48860380e+04
  1250.5000 0.15504223    1.59260759e+04
  1251.0000 0.15510423    1.70754521e+04
  1251.5000 0.15516622    1.83451893e+04
  1252.0000 0.15522821    1.97457988e+04
  1252.5000 0.15529020    2.12861315e+04
  1253.0000 0.15535219    2.29717053e+04
  1253.5000 0.15541419    2.48024963e+04
  1254.0000 0.15547618    2.67703946e+04
  1254.5000 0.15553817    2.88569180e+04
  1255.0000 0.15560016    3.10323116e+04
  1255.5000 0.15566216    3.32576060e+04
  1256.0000 0.15572415    3.54910447e+04
  1256.5000 0.15578614    3.76989748e+04
  1257.0000 0.15584813    3.98688554e+04
  1257.5000 0.15591012    4.20198017e+04
  1258.0000 0.15597212    4.42060466e+04
  1258.5000 0.15603411    4.65116437e+04
  1259.0000 0.15609610    4.90387797e+04
  1259.5000 0.15615809    5.18942602e+04
  1260.0000 0.15622008    5.51778623e+04
  1260.5000 0.15628208    5.89736083e+04
  1261.0000 0.15634407    6.33426008e+04
  1261.5000 0.15640606    6.83149383e+04
  1262.0000 0.15646805    7.38783510e+04
  1262.5000 0.15653004    7.99622937e+04
  1263.0000 0.15659204    8.64182918e+04
  1263.5000 0.15665403    9.30006232e+04
  1264.0000 0.15671602    9.93558041e+04
  1264.5000 0.15677801    1.05033282e+05
  1265.0000 0.15684001    1.09529472e+05
  1265.5000 0.15690200    1.12368135e+05
  1266.0000 0.15696399    1.13201502e+05
  1266.5000 0.15702598    1.11897422e+05
  1267.0000 0.15708797    1.08574573e+05
  1267.5000 0.15714997    1.03568751e+05
  1268.0000 0.15721196    9.73465250e+04
  1268.5000 0.15727395    9.04040685e+04
  1269.0000 0.15733594    8.31862423e+04
  1269.5000 0.15739793    7.60420985e+04
  1270.0000 0.15745993    6.92142426e+04
  1270.5000 0.15752192    6.28501268e+04
  1271.0000 0.15758391    5.70229249e+04
  1271.5000 0.15764590    5.17534632e+04
  1272.0000 0.15770789    4.70289114e+04
  1272.5000 0.15776989    4.28169106e+04
  1273.0000 0.15783188    3.90753944e+04
  1273.5000 0.15789387    3.57589606e+04
  1274.0000 0.15795586    3.28227274e+04
  1274.5000 0.15801785    3.02244648e+04
  1275.0000 0.15807985    2.79255926e+04
  1275.5000 0.15814184    2.58914552e+04
  1276.0000 0.15820383    2.40911382e+04
  1276.5000 0.15826582    2.24969925e+04
  1277.0000 0.15832782    2.10839723e+04
  1277.5000 0.15838981    1.98288686e+04
  1278.0000 0.15845180    1.87095448e+04
  1278.5000 0.15851379    1.77043312e+04
  1279.0000 0.15857578    1.67918020e+04
  1279.5000 0.15863778    1.59511654e+04
  1280.0000 0.15869977    1.51633628e+04
  1280.5000 0.15876176    1.44126544e+04
  1281.0000 0.15882375    1.36881099e+04
  1281.5000 0.15888574    1.29842889e+04
  1282.0000 0.15894774    1.23007081e+04
  1282.5000 0.15900973    1.16402855e+04
  1283.0000 0.15907172    1.10074048e+04
  1283.5000 0.15913371    1.04062713e+04
  1284.0000 0.15919570    9.83991592e+03
  1284.5000 0.15925770    9.30984773e+03
  1285.0000 0.15931969    8.81615460e+03
  1285.5000 0.15938168    8.35781911e+03
  1286.0000 0.15944367    7.93308104e+03
  1286.5000 0.15950567    7.53975531e+03
  1287.0000 0.15956766    7.17547346e+03
  1287.5000 0.15962965    6.83784901e+03
  1288.0000 0.15969164    6.52458090e+03
  1288.5000 0.15975363    6.23351154e+03
  1289.0000 0.15981563    5.96265415e+03
  1289.5000 0.15987762    5.71020056e+03
  1290.0000 0.15993961    5.47451730e+03
  1290.5000 0.16000160    5.25413529e+03
  1291.0000 0.16006359    5.04773651e+03
  1291.5000 0.16012559    4.85413962e+03
  1292.0000 0.16018758    4.67228577e+03
  1292.5000 0.16024957    4.50122526e+03
  1293.0000 0.16031156    4.34010531e+03
  1293.5000 0.16037355    4.18815910e+03
  1294.0000 0.16043555    4.04469599e+03
  1294.5000 0.16049754    3.90909295e+03
  1295.0000 0.16055953    3.78078701e+03
  1295.5000 0.16062152    3.65926869e+03
  1296.0000 0.16068352    3.54407626e+03
  1296.5000 0.16074551    3.43479071e+03
  1297.0000 0.16080750    3.33103142e+03
  1297.5000 0.16086949    3.23245236e+03
  1298.0000 0.16093148    3.13873884e+03
  1298.5000 0.16099348    3.04960461e+03
  1299.0000 0.16105547    2.96478943e+03
  1299.5000 0.16111746    2.88405692e+03
  1300.0000 0.16117945    2.80719270e+03
  1300.5000 0.16124144    2.73400282e+03
  1301.0000 0.16130344    2.66431229e+03
  1301.5000 0.16136543    2.59796387e+03
  1302.0000 0.16142742    2.53481678e+03
  1302.5000 0.16148941    2.47474546e+03
  1303.0000 0.16155140    2.41763812e+03
  1303.5000 0.16161340    2.36339496e+03
  1304.0000 0.16167539    2.31192583e+03
  1304.5000 0.16173738    2.26314724e+03
  1305.0000 0.16179937    2.21697865e+03
  1305.5000 0.16186136    2.17333851e+03
  1306.0000 0.16192336    2.13214090e+03
  1306.5000 0.16198535    2.09329489e+03
  1307.0000 0.16204734    2.05670886e+03
  1307.5000 0.16210933    2.02230216e+03
  1308.0000 0.16217133    1.99002389e+03
  1308.5000 0.16223332    1.95987461e+03
  1309.0000 0.16229531    1.93192356e+03
  1309.5000 0.16235730    1.90631421e+03
  1310.0000 0.16241929    1.88325576e+03
  1310.5000 0.16248129    1.86300465e+03
  1311.0000 0.16254328    1.84584267e+03
  1311.5000 0.16260527    1.83205661e+03
  1312.0000 0.16266726    1.82191905e+03
  1312.5000 0.16272925    1.81566612e+03
  1313.0000 0.16279125    1.81346519e+03
  1313.5000 0.16285324    1.81536488e+03
  1314.0000 0.16291523    1.82122115e+03
  1314.5000 0.16297722    1.83059683e+03
  1315.0000 0.16303921    1.84264141e+03
  1315.5000 0.16310121    1.85597412e+03
  1316.0000 0.16316320    1.86861699e+03
  1316.5000 0.16322519    1.87804674e+03
  1317.0000 0.16328718    1.88143373e+03
  1317.5000 0.16334918    1.87608665e+03
  1318.0000 0.16341117    1.86001854e+03
  1318.5000 0.16347316    1.83244126e+03
  1319.0000 0.16353515    1.79397362e+03
  1319.5000 0.16359714    1.74646289e+03
  1320.0000 0.16365914    1.69250587e+03
  1320.5000 0.16372113    1.63488035e+03
  1321.0000 0.16378312    1.57608567e+03
  1321.5000 0.16384511    1.51808700e+03
  1322.0000 0.16390710    1.46225100e+03
  1322.5000 0.16396910    1.40940682e+03
  1323.0000 0.16403109    1.35996259e+03
  1323.5000 0.16409308    1.31402881e+03
  1324.0000 0.16415507    1.27152409e+03
  1324.5000 0.16421706    1.23225514e+03
  1325.0000 0.16427906    1.19597265e+03
  1325.5000 0.16434105    1.16240758e+03
  1326.0000 0.16440304    1.13129326e+03
  1326.5000 0.16446503    1.10237777e+03
  1327.0000 0.16452703    1.07543013e+03
  1327.5000 0.16458902    1.05024243e+03
  1328.0000 0.16465101    1.02662985e+03
  1328.5000 0.16471300    1.00442932e+03
  1329.0000 0.16477499    9.83497644e+02
  1329.5000 0.16483699    9.63709405e+02
  1330.0000 0.16489898    9.44954834e+02
  1330.5000 0.16496097    9.27137852e+02
  1331.0000 0.16502296    9.10174280e+02
  1331.5000 0.16508495    8.93990237e+02
  1332.0000 0.16514695    8.78520753e+02
  1332.5000 0.16520894    8.63708551e+02
  1333.0000 0.16527093    8.49503009e+02
  1333.5000 0.16533292    8.35859261e+02
  1334.0000 0.16539491    8.22737428e+02
  1334.5000 0.16545691    8.10101963e+02
  1335.0000 0.16551890    7.97921086e+02
  1335.5000 0.16558089    7.86166304e+02
  1336.0000 0.16564288    7.74811999e+02
  1336.5000 0.16570487    7.63835073e+02
  1337.0000 0.16576687    7.53214645e+02
  1337.5000 0.16582886    7.42931788e+02
  1338.0000 0.16589085    7.32969308e+02
  1338.5000 0.16595284    7.23311542e+02
  1339.0000 0.16601484    7.13944197e+02
  1339.5000 0.16607683    7.04854200e+02
  1340.0000 0.16613882    6.96029571e+02
  1340.5000 0.16620081    6.87459313e+02
  1341.0000 0.16626280    6.79133320e+02
  1341.5000 0.16632480    6.71042284e+02
  1342.0000 0.16638679    6.63177632e+02
  1342.5000 0.16644878    6.55531452e+02
  1343.0000 0.16651077    6.48096446e+02
  1343.5000 0.16657276    6.40865871e+02
  1344.0000 0.16663476    6.33833505e+02
  1344.5000 0.16669675    6.26993602e+02
  1345.0000 0.16675874    6.20340863e+02
  1345.5000 0.16682073    6.13870405e+02
  1346.0000 0.16688272    6.07577738e+02
  1346.5000 0.16694472    6.01458740e+02
  1347.0000 0.16700671    5.95509640e+02
  1347.5000 0.16706870    5.89727003e+02
  1348.0000 0.16713069    5.84107716e+02
  1348.5000 0.16719269    5.78648974e+02
  1349.0000 0.16725468    5.73348276e+02
  1349.5000 0.16731667    5.68203415e+02
  1350.0000 0.16737866    5.63212474e+02
  1350.5000 0.16744065    5.58373823e+02
  1351.0000 0.16750265    5.53686119e+02
  1351.5000 0.16756464    5.49148307e+02
  1352.0000 0.16762663    5.44759621e+02
  1352.5000 0.16768862    5.40519592e+02
  1353.0000 0.16775061    5.36428054e+02
  1353.5000 0.16781261    5.32485149e+02
  1354.0000 0.16787460    5.28691347e+02
  1354.5000 0.16793659    5.25047453e+02
  1355.0000 0.16799858    5.21554624e+02
  1355.5000 0.16806057    5.18214393e+02
  1356.0000 0.16812257    5.15028687e+02
  1356.5000 0.16818456    5.11999856e+02
  1357.0000 0.16824655    5.09130701e+02
  1357.5000 0.16830854    5.06424509e+02
  1358.0000 0.16837054    5.03885094e+02
  1358.5000 0.16843253    5.01516839e+02
  1359.0000 0.16849452    4.99324749e+02
  1359.5000 0.16855651    4.97314508e+02
  1360.0000 0.16861850    4.95492546e+02
  1360.5000 0.16868050    4.93866115e+02
  1361.0000 0.16874249    4.92443373e+02
  1361.5000 0.16880448    4.91233484e+02
  1362.0000 0.16886647    4.90246730e+02
  1362.5000 0.16892846    4.89494641e+02
  1363.0000 0.16899046    4.88990138e+02
  1363.5000 0.16905245    4.88747708e+02
  1364.0000 0.16911444    4.88783596e+02
  1364.5000 0.16917643    4.89116026e+02
  1365.0000 0.16923842    4.89765466e+02
  1365.5000 0.16930042    4.90754918e+02
  1366.0000 0.16936241    4.92110273e+02
  1366.5000 0.16942440    4.93860698e+02
  1367.0000 0.16948639    4.96039105e+02
  1367.5000 0.16954838    4.98682684e+02
  1368.0000 0.16961038    5.01833512e+02
  1368.5000 0.16967237    5.05539268e+02
  1369.0000 0.16973436    5.09854039e+02
  1369.5000 0.16979635    5.14839248e+02
  1370.0000 0.16985835    5.20564693e+02
  1370.5000 0.16992034    5.27109690e+02
  1371.0000 0.16998233    5.34564322e+02
  1371.5000 0.17004432    5.43030718e+02
  1372.0000 0.17010631    5.52624290e+02
  1372.5000 0.17016831    5.63474767e+02
  1373.0000 0.17023030    5.75726770e+02
  1373.5000 0.17029229    5.89539536e+02
  1374.0000 0.17035428    6.05085215e+02
  1374.5000 0.17041627    6.22544973e+02
  1375.0000 0.17047827    6.42101987e+02
  1375.5000 0.17054026    6.63930522e+02
  1376.0000 0.17060225    6.88180857e+02
  1376.5000 0.17066424    7.14961489e+02
  1377.0000 0.17072623    7.44322990e+02
  1377.5000 0.17078823    7.76252149e+02
  1378.0000 0.17085022    8.10688610e+02
  1378.5000 0.17091221    8.47575322e+02
  1379.0000 0.17097420    8.86943760e+02
  1379.5000 0.17103620    9.29014894e+02
  1380.0000 0.17109819    9.74276859e+02
  1380.5000 0.17116018    1.02349658e+03
  1381.0000 0.17122217    1.07764300e+03
  1381.5000 0.17128416    1.13773058e+03
  1382.0000 0.17134616    1.20461018e+03
  1382.5000 0.17140815    1.27872886e+03
  1383.0000 0.17147014    1.35986486e+03
  1383.5000 0.17153213    1.44683811e+03
  1384.0000 0.17159412    1.53721771e+03
  1384.5000 0.17165612    1.62709707e+03
  1385.0000 0.17171811    1.71107158e+03
  1385.5000 0.17178010    1.78259270e+03
  1386.0000 0.17184209    1.83482157e+03
  1386.5000 0.17190408    1.86191602e+03
  1387.0000 0.17196608    1.86040244e+03
  1387.5000 0.17202807    1.83009704e+03
  1388.0000 0.17209006    1.77415201e+03
  1388.5000 0.17215205    1.69820579e+03
  1389.0000 0.17221405    1.60903615e+03
  1389.5000 0.17227604    1.51325733e+03
  1390.0000 0.17233803    1.41643478e+03
  1390.5000 0.17240002    1.32270827e+03
  1391.0000 0.17246201    1.23481007e+03
  1391.5000 0.17252401    1.15430053e+03
  1392.0000 0.17258600    1.08187287e+03
  1392.5000 0.17264799    1.01763862e+03
  1393.0000 0.17270998    9.61356491e+02
  1393.5000 0.17277197    9.12598563e+02
  1394.0000 0.17283397    8.70862289e+02
  1394.5000 0.17289596    8.35640939e+02
  1395.0000 0.17295795    8.06464134e+02
  1395.5000 0.17301994    7.82917406e+02
  1396.0000 0.17308193    7.64646683e+02
  1396.5000 0.17314393    7.51350779e+02
  1397.0000 0.17320592    7.42762696e+02
  1397.5000 0.17326791    7.38618697e+02
  1398.0000 0.17332990    7.38613069e+02
  1398.5000 0.17339189    7.42336863e+02
  1399.0000 0.17345389    7.49201874e+02
  1399.5000 0.17351588    7.58358343e+02
  1400.0000 0.17357787    7.68627199e+02
  1400.5000 0.17363986    7.78482918e+02
  1401.0000 0.17370186    7.86132270e+02
  1401.5000 0.17376385    7.89721500e+02
  1402.0000 0.17382584    7.87656778e+02
  1402.5000 0.17388783    7.78951055e+02
  1403.0000 0.17394982    7.63461096e+02
  1403.5000 0.17401182    7.41904278e+02
  1404.0000 0.17407381    7.15646231e+02
  1404.5000 0.17413580    6.86358246e+02
  1405.0000 0.17419779    6.55682436e+02
  1405.5000 0.17425978    6.25001666e+02
  1406.0000 0.17432178    5.95339241e+02
  1406.5000 0.17438377    5.67360531e+02
  1407.0000 0.17444576    5.41431276e+02
  1407.5000 0.17450775    5.17694445e+02
  1408.0000 0.17456974    4.96142644e+02
  1408.5000 0.17463174    4.76676277e+02
  1409.0000 0.17469373    4.59145773e+02
  1409.5000 0.17475572    4.43380005e+02
  1410.0000 0.17481771    4.29204184e+02
  1410.5000 0.17487971    4.16450322e+02
  1411.0000 0.17494170    4.04962760e+02
  1411.5000 0.17500369    3.94600577e+02
  1412.0000 0.17506568    3.85238102e+02
  1412.5000 0.17512767    3.76764374e+02
  1413.0000 0.17518967    3.69082043e+02
  1413.5000 0.17525166    3.62106037e+02
  1414.0000 0.17531365    3.55762183e+02
  1414.5000 0.17537564    3.49985880e+02
  1415.0000 0.17543763    3.44720873e+02
  1415.5000 0.17549963    3.39918156e+02
  1416.0000 0.17556162    3.35535011e+02
  1416.5000 0.17562361    3.31534156e+02
  1417.0000 0.17568560    3.27883024e+02
  1417.5000 0.17574759    3.24553131e+02
  1418.0000 0.17580959    3.21519540e+02
  1418.5000 0.17587158    3.18760401e+02
  1419.0000 0.17593357    3.16256554e+02
  1419.5000 0.17599556    3.13991195e+02
  1420.0000 0.17605756    3.11949587e+02
  1420.5000 0.17611955    3.10118812e+02
  1421.0000 0.17618154    3.08487563e+02
  1421.5000 0.17624353    3.07045958e+02
  1422.0000 0.17630552    3.05785393e+02
  1422.5000 0.17636752    3.04698402e+02
  1423.0000 0.17642951    3.03778545e+02
  1423.5000 0.17649150    3.03020316e+02
  1424.0000 0.17655349    3.02419051e+02
  1424.5000 0.17661548    3.01970865e+02
  1425.0000 0.17667748    3.01672587e+02
  1425.5000 0.17673947    3.01521708e+02
  1426.0000 0.17680146    3.01516345e+02
  1426.5000 0.17686345    3.01655198e+02
  1427.0000 0.17692544    3.01937523e+02
  1427.5000 0.17698744    3.02363112e+02
  1428.0000 0.17704943    3.02932272e+02
  1428.5000 0.17711142    3.03645812e+02
  1429.0000 0.17717341    3.04505036e+02
  1429.5000 0.17723540    3.05511741e+02
  1430.0000 0.17729740    3.06668211e+02
  1430.5000 0.17735939    3.07977226e+02
  1431.0000 0.17742138    3.09442070e+02
  1431.5000 0.17748337    3.11066540e+02
  1432.0000 0.17754537    3.12854964e+02
  1432.5000 0.17760736    3.14812220e+02
  1433.0000 0.17766935    3.16943762e+02
  1433.5000 0.17773134    3.19255646e+02
  1434.0000 0.17779333    3.21754566e+02
  1434.5000 0.17785533    3.24447890e+02
  1435.0000 0.17791732    3.27343706e+02
  1435.5000 0.17797931    3.30450870e+02
  1436.0000 0.17804130    3.33779066e+02
  1436.5000 0.17810329    3.37338864e+02
  1437.0000 0.17816529    3.41141796e+02
  1437.5000 0.17822728    3.45200435e+02
  1438.0000 0.17828927    3.49528486e+02
  1438.5000 0.17835126    3.54140887e+02
  1439.0000 0.17841325    3.59053922e+02
  1439.5000 0.17847525    3.64285352e+02
  1440.0000 0.17853724    3.69854554e+02
  1440.5000 0.17859923    3.75782688e+02
  1441.0000 0.17866122    3.82092878e+02
  1441.5000 0.17872322    3.88810418e+02
  1442.0000 0.17878521    3.95963002e+02
  1442.5000 0.17884720    4.03580993e+02
  1443.0000 0.17890919    4.11697717e+02
  1443.5000 0.17897118    4.20349804e+02
  1444.0000 0.17903318    4.29577573e+02
  1444.5000 0.17909517    4.39425473e+02
  1445.0000 0.17915716    4.49942583e+02
  1445.5000 0.17921915    4.61183188e+02
  1446.0000 0.17928114    4.73207439e+02
  1446.5000 0.17934314    4.86082104e+02
  1447.0000 0.17940513    4.99881446e+02
  1447.5000 0.17946712    5.14688223e+02
  1448.0000 0.17952911    5.30594854e+02
  1448.5000 0.17959110    5.47704759e+02
  1449.0000 0.17965310    5.66133921e+02
  1449.5000 0.17971509    5.86012702e+02
  1450.0000 0.17977708    6.07487950e+02
  1450.5000 0.17983907    6.30725460e+02
  1451.0000 0.17990107    6.55912841e+02
  1451.5000 0.17996306    6.83262858e+02
  1452.0000 0.18002505    7.13017334e+02
  1452.5000 0.18008704    7.45451691e+02
  1453.0000 0.18014903    7.80880226e+02
  1453.5000 0.18021103    8.19662209e+02
  1454.0000 0.18027302    8.62208903e+02
  1454.5000 0.18033501    9.08991543e+02
  1455.0000 0.18039700    9.60550289e+02
  1455.5000 0.18045899    1.01750405e+03
  1456.0000 0.18052099    1.08056090e+03
  1456.5000 0.18058298    1.15052849e+03
  1457.0000 0.18064497    1.22832347e+03
  1457.5000 0.18070696    1.31497810e+03
  1458.0000 0.18076895    1.41164133e+03
  1458.5000 0.18083095    1.51957008e+03
  1459.0000 0.18089294    1.64010427e+03
  1459.5000 0.18095493    1.77461670e+03
  1460.0000 0.18101692    1.92442497e+03
  1460.5000 0.18107891    2.09064789e+03
  1461.0000 0.18114091    2.27398381e+03
  1461.5000 0.18120290    2.47438420e+03
  1462.0000 0.18126489    2.69060163e+03
  1462.5000 0.18132688    2.91961929e+03
  1463.0000 0.18138888    3.15603736e+03
  1463.5000 0.18145087    3.39160575e+03
  1464.0000 0.18151286    3.61522209e+03
  1464.5000 0.18157485    3.81376972e+03
  1465.0000 0.18163684    3.97401535e+03
  1465.5000 0.18169884    4.08534177e+03
  1466.0000 0.18176083    4.14250412e+03
  1466.5000 0.18182282    4.14728776e+03
  1467.0000 0.18188481    4.10829295e+03
  1467.5000 0.18194680    4.03895978e+03
  1468.0000 0.18200880    3.95474976e+03
  1468.5000 0.18207079    3.87057734e+03
  1469.0000 0.18213278    3.79916492e+03
  1469.5000 0.18219477    3.75041351e+03
  1470.0000 0.18225676    3.73150424e+03
  1470.5000 0.18231876    3.74734761e+03
  1471.0000 0.18238075    3.80106977e+03
  1471.5000 0.18244274    3.89433948e+03
  1472.0000 0.18250473    4.02743104e+03
  1472.5000 0.18256673    4.19897440e+03
  1473.0000 0.18262872    4.40538520e+03
  1473.5000 0.18269071    4.64002570e+03
  1474.0000 0.18275270    4.89225504e+03
  1474.5000 0.18281469    5.14669866e+03
  1475.0000 0.18287669    5.38326234e+03
  1475.5000 0.18293868    5.57850109e+03
  1476.0000 0.18300067    5.70870750e+03
  1476.5000 0.18306266    5.75436796e+03
  1477.0000 0.18312465    5.70467574e+03
  1477.5000 0.18318665    5.56026497e+03
  1478.0000 0.18324864    5.33287631e+03
  1478.5000 0.18331063    5.04211309e+03
  1479.0000 0.18337262    4.71077894e+03
  1479.5000 0.18343461    4.36060275e+03
  1480.0000 0.18349661    4.00948282e+03
  1480.5000 0.18355860    3.67042978e+03
  1481.0000 0.18362059    3.35176537e+03
  1481.5000 0.18368258    3.05797462e+03
  1482.0000 0.18374458    2.79073660e+03
  1482.5000 0.18380657    2.54986234e+03
  1483.0000 0.18386856    2.33403315e+03
  1483.5000 0.18393055    2.14132922e+03
  1484.0000 0.18399254    1.96958167e+03
  1484.5000 0.18405454    1.81659189e+03
  1485.0000 0.18411653    1.68025832e+03
  1485.5000 0.18417852    1.55864234e+03
  1486.0000 0.18424051    1.44999579e+03
  1486.5000 0.18430250    1.35276557e+03
  1487.0000 0.18436450    1.26558551e+03
  1487.5000 0.18442649    1.18726163e+03
  1488.0000 0.18448848    1.11675487e+03
  1488.5000 0.18455047    1.05316335e+03
  1489.0000 0.18461246    9.95705519e+02
  1489.5000 0.18467446    9.43704729e+02
  1490.0000 0.18473645    8.96575492e+02
  1490.5000 0.18479844    8.53811477e+02
  1491.0000 0.18486043    8.14975145e+02
  1491.5000 0.18492242    7.79688890e+02
  1492.0000 0.18498442    7.47627536e+02
  1492.5000 0.18504641    7.18512036e+02
  1493.0000 0.18510840    6.92104229e+02
  1493.5000 0.18517039    6.68202517e+02
  1494.0000 0.18523239    6.46638355e+02
  1494.5000 0.18529438    6.27273436e+02
  1495.0000 0.18535637    6.09997472e+02
  1495.5000 0.18541836    5.94726452e+02
  1496.0000 0.18548035    5.81401250e+02
  1496.5000 0.18554235    5.69986401e+02
  1497.0000 0.18560434    5.60468774e+02
  1497.5000 0.18566633    5.52855781e+02
  1498.0000 0.18572832    5.47172506e+02
  1498.5000 0.18579031    5.43456917e+02
  1499.0000 0.18585231    5.41751872e+02
  1499.5000 0.18591430    5.42092222e+02
  1500.0000 0.18597629    5.44484806e+02
  1500.5000 0.18603828    5.48878992e+02
  1501.0000 0.18610027    5.55126055e+02
  1501.5000 0.18616227    5.62928086e+02
  1502.0000 0.18622426    5.71782471e+02
  1502.5000 0.18628625    5.80936932e+02
  1503.0000 0.18634824    5.89380947e+02
  1503.5000 0.18641024    5.95905725e+02
  1504.0000 0.18647223    5.99255307e+02
  1504.5000 0.18653422    5.98356922e+02
  1505.0000 0.18659621    5.92567704e+02
  1505.5000 0.18665820    5.81840831e+02
  1506.0000 0.18672020    5.66734042e+02
  1506.5000 0.18678219    5.48256339e+02
  1507.0000 0.18684418    5.27624586e+02
  1507.5000 0.18690617    5.06027799e+02
  1508.0000 0.18696816    4.84466787e+02
  1508.5000 0.18703016    4.63685700e+02
  1509.0000 0.18709215    4.44175078e+02
  1509.5000 0.18715414    4.26214281e+02
  1510.0000 0.18721613    4.09926436e+02
  1510.5000 0.18727812    3.95329799e+02
  1511.0000 0.18734012    3.82378687e+02
  1511.5000 0.18740211    3.70992746e+02
  1512.0000 0.18746410    3.61075892e+02
  1512.5000 0.18752609    3.52526969e+02
  1513.0000 0.18758809    3.45243933e+02
  1513.5000 0.18765008    3.39122870e+02
  1514.0000 0.18771207    3.34052769e+02
  1514.5000 0.18777406    3.29906873e+02
  1515.0000 0.18783605    3.26532034e+02
  1515.5000 0.18789805    3.23738720e+02
  1516.0000 0.18796004    3.21296269e+02
  1516.5000 0.18802203    3.18939418e+02
  1517.0000 0.18808402    3.16391286e+02
  1517.5000 0.18814601    3.13402696e+02
  1518.0000 0.18820801    3.09798522e+02
  1518.5000 0.18827000    3.05513763e+02
  1519.0000 0.18833199    3.00602811e+02
  1519.5000 0.18839398    2.95217128e+02
  1520.0000 0.18845597    2.89561731e+02
  1520.5000 0.18851797    2.83848710e+02
  1521.0000 0.18857996    2.78262593e+02
  1521.5000 0.18864195    2.72943016e+02
  1522.0000 0.18870394    2.67982208e+02
  1522.5000 0.18876593    2.63431403e+02
  1523.0000 0.18882793    2.59310745e+02
  1523.5000 0.18888992    2.55619134e+02
  1524.0000 0.18895191    2.52342377e+02
  1524.5000 0.18901390    2.49459216e+02
  1525.0000 0.18907590    2.46945445e+02
  1525.5000 0.18913789    2.44776537e+02
  1526.0000 0.18919988    2.42929196e+02
  1526.5000 0.18926187    2.41382199e+02
  1527.0000 0.18932386    2.40116781e+02
  1527.5000 0.18938586    2.39116740e+02
  1528.0000 0.18944785    2.38368388e+02
  1528.5000 0.18950984    2.37860425e+02
  1529.0000 0.18957183    2.37583773e+02
  1529.5000 0.18963382    2.37531410e+02
  1530.0000 0.18969582    2.37698216e+02
  1530.5000 0.18975781    2.38080833e+02
  1531.0000 0.18981980    2.38677554e+02
  1531.5000 0.18988179    2.39488230e+02
  1532.0000 0.18994378    2.40514212e+02
  1532.5000 0.19000578    2.41758305e+02
  1533.0000 0.19006777    2.43224760e+02
  1533.5000 0.19012976    2.44919277e+02
  1534.0000 0.19019175    2.46849038e+02
  1534.5000 0.19025375    2.49022767e+02
  1535.0000 0.19031574    2.51450806e+02
  1535.5000 0.19037773    2.54145228e+02
  1536.0000 0.19043972    2.57119970e+02
  1536.5000 0.19050171    2.60390999e+02
  1537.0000 0.19056371    2.63976521e+02
  1537.5000 0.19062570    2.67897213e+02
  1538.0000 0.19068769    2.72176512e+02
  1538.5000 0.19074968    2.76840946e+02
  1539.0000 0.19081167    2.81920525e+02
  1539.5000 0.19087367    2.87449180e+02
  1540.0000 0.19093566    2.93465283e+02
  1540.5000 0.19099765    3.00012225e+02
  1541.0000 0.19105964    3.07139059e+02
  1541.5000 0.19112163    3.14901215e+02
  1542.0000 0.19118363    3.23361230e+02
  1542.5000 0.19124562    3.32589492e+02
  1543.0000 0.19130761    3.42664874e+02
  1543.5000 0.19136960    3.53675162e+02
  1544.0000 0.19143160    3.65717027e+02
  1544.5000 0.19149359    3.78895204e+02
  1545.0000 0.19155558    3.93320377e+02
  1545.5000 0.19161757    4.09105022e+02
  1546.0000 0.19167956    4.26356274e+02
  1546.5000 0.19174156    4.45164754e+02
  1547.0000 0.19180355    4.65588462e+02
  1547.5000 0.19186554    4.87631759e+02
  1548.0000 0.19192753    5.11221606e+02
  1548.5000 0.19198952    5.36187018e+02
  1549.0000 0.19205152    5.62252737e+02
  1549.5000 0.19211351    5.89061923e+02
  1550.0000 0.19217550    6.16240352e+02
  1550.5000 0.19223749    6.43501202e+02
  1551.0000 0.19229948    6.70766492e+02
  1551.5000 0.19236148    6.98261911e+02
  1552.0000 0.19242347    7.26544599e+02
  1552.5000 0.19248546    7.56453220e+02
  1553.0000 0.19254745    7.89007122e+02
  1553.5000 0.19260944    8.25299645e+02
  1554.0000 0.19267144    8.66421142e+02
  1554.5000 0.19273343    9.13423459e+02
  1555.0000 0.19279542    9.67317374e+02
  1555.5000 0.19285741    1.02908548e+03
  1556.0000 0.19291941    1.09969268e+03
  1556.5000 0.19298140    1.18007900e+03
  1557.0000 0.19304339    1.27112187e+03
  1557.5000 0.19310538    1.37355493e+03
  1558.0000 0.19316737    1.48783164e+03
  1558.5000 0.19322937    1.61392507e+03
  1559.0000 0.19329136    1.75106840e+03
  1559.5000 0.19335335    1.89746741e+03
  1560.0000 0.19341534    2.05006109e+03
  1560.5000 0.19347733    2.20445821e+03
  1561.0000 0.19353933    2.35520043e+03
  1561.5000 0.19360132    2.49643925e+03
  1562.0000 0.19366331    2.62292611e+03
  1562.5000 0.19372530    2.73096196e+03
  1563.0000 0.19378729    2.81882082e+03
  1563.5000 0.19384929    2.88633545e+03
  1564.0000 0.19391128    2.93378031e+03
  1564.5000 0.19397327    2.96062498e+03
  1565.0000 0.19403526    2.96486028e+03
  1565.5000 0.19409726    2.94333813e+03
  1566.0000 0.19415925    2.89305506e+03
  1566.5000 0.19422124    2.81279656e+03
  1567.0000 0.19428323    2.70432865e+03
  1567.5000 0.19434522    2.57255290e+03
  1568.0000 0.19440722    2.42460979e+03
  1568.5000 0.19446921    2.26843122e+03
  1569.0000 0.19453120    2.11137736e+03
  1569.5000 0.19459319    1.95936528e+03
  1570.0000 0.19465518    1.81656224e+03
  1570.5000 0.19471718    1.68549669e+03
  1571.0000 0.19477917    1.56738251e+03
  1571.5000 0.19484116    1.46249474e+03
  1572.0000 0.19490315    1.37050573e+03
  1572.5000 0.19496514    1.29074697e+03
  1573.0000 0.19502714    1.22239508e+03
  1573.5000 0.19508913    1.16459481e+03
  1574.0000 0.19515112    1.11653539e+03
  1574.5000 0.19521311    1.07749484e+03
  1575.0000 0.19527511    1.04686363e+03
  1575.5000 0.19533710    1.02415591e+03
  1576.0000 0.19539909    1.00901375e+03
  1576.5000 0.19546108    1.00120806e+03
  1577.0000 0.19552307    1.00063843e+03
  1577.5000 0.19558507    1.00733295e+03
  1578.0000 0.19564706    1.02144879e+03
  1578.5000 0.19570905    1.04327315e+03
  1579.0000 0.19577104    1.07322404e+03
  1579.5000 0.19583303    1.11184923e+03
  1580.0000 0.19589503    1.15982056e+03
  1580.5000 0.19595702    1.21791939e+03
  1581.0000 0.19601901    1.28700618e+03
  1581.5000 0.19608100    1.36796427e+03
  1582.0000 0.19614299    1.46160351e+03
  1582.5000 0.19620499    1.56850506e+03
  1583.0000 0.19626698    1.68878585e+03
  1583.5000 0.19632897    1.82176364e+03
  1584.0000 0.19639096    1.96551938e+03
  1584.5000 0.19645296    2.11639228e+03
  1585.0000 0.19651495    2.26851446e+03
  1585.5000 0.19657694    2.41358992e+03
  1586.0000 0.19663893    2.54120449e+03
  1586.5000 0.19670092    2.63992738e+03
  1587.0000 0.19676292    2.69922669e+03
  1587.5000 0.19682491    2.71178003e+03
  1588.0000 0.19688690    2.67535157e+03
  1588.5000 0.19694889    2.59340038e+03
  1589.0000 0.19701088    2.47412470e+03
  1589.5000 0.19707288    2.32840058e+03
  1590.0000 0.19713487    2.16749914e+03
  1590.5000 0.19719686    2.00133929e+03
  1591.0000 0.19725885    1.83758288e+03
  1591.5000 0.19732084    1.68147343e+03
  1592.0000 0.19738284    1.53613583e+03
  1592.5000 0.19744483    1.40306403e+03
  1593.0000 0.19750682    1.28261524e+03
  1593.5000 0.19756881    1.17442339e+03
  1594.0000 0.19763080    1.07770798e+03
  1594.5000 0.19769280    9.91486948e+02
  1595.0000 0.19775479    9.14713751e+02
  1595.5000 0.19781678    8.46359997e+02
  1596.0000 0.19787877    7.85461111e+02
  1596.5000 0.19794077    7.31138282e+02
  1597.0000 0.19800276    6.82605837e+02
  1597.5000 0.19806475    6.39170161e+02
  1598.0000 0.19812674    6.00224075e+02
  1598.5000 0.19818873    5.65239098e+02
  1599.0000 0.19825073    5.33757025e+02
  1599.5000 0.19831272    5.05381660e+02
  1600.0000 0.19837471    4.79771127e+02
  1600.5000 0.19843670    4.56630946e+02
  1601.0000 0.19849869    4.35707962e+02
  1601.5000 0.19856069    4.16785082e+02
  1602.0000 0.19862268    3.99676777e+02
  1602.5000 0.19868467    3.84225263e+02
  1603.0000 0.19874666    3.70297267e+02
  1603.5000 0.19880865    3.57781275e+02
  1604.0000 0.19887065    3.46585137e+02
  1604.5000 0.19893264    3.36633901e+02
  1605.0000 0.19899463    3.27867671e+02
  1605.5000 0.19905662    3.20239270e+02
  1606.0000 0.19911862    3.13711368e+02
  1606.5000 0.19918061    3.08252667e+02
  1607.0000 0.19924260    3.03832636e+02
  1607.5000 0.19930459    3.00414309e+02
  1608.0000 0.19936658    2.97944832e+02
  1608.5000 0.19942858    2.96344110e+02
  1609.0000 0.19949057    2.95493078e+02
  1609.5000 0.19955256    2.95224945e+02
  1610.0000 0.19961455    2.95324432e+02
  1610.5000 0.19967654    2.95540066e+02
  1611.0000 0.19973854    2.95610806e+02
  1611.5000 0.19980053    2.95300628e+02
  1612.0000 0.19986252    2.94427064e+02
  1612.5000 0.19992451    2.92869705e+02
  1613.0000 0.19998650    2.90555964e+02
  1613.5000 0.20004850    2.87437518e+02
  1614.0000 0.20011049    2.83478490e+02
  1614.5000 0.20017248    2.78667862e+02
  1615.0000 0.20023447    2.73049462e+02
  1615.5000 0.20029647    2.66748163e+02
  1616.0000 0.20035846    2.59972203e+02
  1616.5000 0.20042045    2.52987267e+02
  1617.0000 0.20048244    2.46074805e+02
  1617.5000 0.20054443    2.39492831e+02
  1618.0000 0.20060643    2.33451513e+02
  1618.5000 0.20066842    2.28105909e+02
  1619.0000 0.20073041    2.23561351e+02
  1619.5000 0.20079240    2.19885125e+02
  1620.0000 0.20085439    2.17119331e+02
  1620.5000 0.20091639    2.15291998e+02
  1621.0000 0.20097838    2.14425157e+02
  1621.5000 0.20104037    2.14539554e+02
  1622.0000 0.20110236    2.15655926e+02
  1622.5000 0.20116435    2.17792656e+02
  1623.0000 0.20122635    2.20959361e+02
  1623.5000 0.20128834    2.25145697e+02
  1624.0000 0.20135033    2.30304725e+02
  1624.5000 0.20141232    2.36330936e+02
  1625.0000 0.20147431    2.43035021e+02
  1625.5000 0.20153631    2.50121067e+02
  1626.0000 0.20159830    2.57176842e+02
  1626.5000 0.20166029    2.63691635e+02
  1627.0000 0.20172228    2.69114281e+02
  1627.5000 0.20178428    2.72951153e+02
  1628.0000 0.20184627    2.74881336e+02
  1628.5000 0.20190826    2.74846260e+02
  1629.0000 0.20197025    2.73072407e+02
  1629.5000 0.20203224    2.70014082e+02
  1630.0000 0.20209424    2.66240562e+02
  1630.5000 0.20215623    2.62311519e+02
  1631.0000 0.20221822    2.58676815e+02
  1631.5000 0.20228021    2.55614706e+02
  1632.0000 0.20234220    2.53204684e+02
  1632.5000 0.20240420    2.51326043e+02
  1633.0000 0.20246619    2.49678315e+02
  1633.5000 0.20252818    2.47827028e+02
  1634.0000 0.20259017    2.45279683e+02
  1634.5000 0.20265216    2.41587365e+02
  1635.0000 0.20271416    2.36449599e+02
  1635.5000 0.20277615    2.29786890e+02
  1636.0000 0.20283814    2.21751634e+02
  1636.5000 0.20290013    2.12674893e+02
  1637.0000 0.20296213    2.02975735e+02
  1637.5000 0.20302412    1.93070854e+02
  1638.0000 0.20308611    1.83311536e+02
  1638.5000 0.20314810    1.73955459e+02
  1639.0000 0.20321009    1.65166230e+02
  1639.5000 0.20327209    1.57028530e+02
  1640.0000 0.20333408    1.49568518e+02
  1640.5000 0.20339607    1.42773169e+02
  1641.0000 0.20345806    1.36605842e+02
  1641.5000 0.20352005    1.31017554e+02
  1642.0000 0.20358205    1.25954552e+02
  1642.5000 0.20364404    1.21363022e+02
  1643.0000 0.20370603    1.17191819e+02
  1643.5000 0.20376802    1.13393847e+02
  1644.0000 0.20383001    1.09926623e+02
  1644.5000 0.20389201    1.06752327e+02
  1645.0000 0.20395400    1.03837581e+02
  1645.5000 0.20401599    1.01153084e+02
  1646.0000 0.20407798    9.86732014e+01
  1646.5000 0.20413998    9.63755329e+01
  1647.0000 0.20420197    9.42405178e+01
  1647.5000 0.20426396    9.22510646e+01
  1648.0000 0.20432595    9.03922239e+01
  1648.5000 0.20438794    8.86508992e+01
  1649.0000 0.20444994    8.70155964e+01
  1649.5000 0.20451193    8.54762061e+01
  1650.0000 0.20457392    8.40238170e+01
  1650.5000 0.20463591    8.26505551e+01
  1651.0000 0.20469790    8.13494460e+01
  1651.5000 0.20475990    8.01142970e+01
  1652.0000 0.20482189    7.89395957e+01
  1652.5000 0.20488388    7.78204233e+01
  1653.0000 0.20494587    7.67523797e+01
  1653.5000 0.20500786    7.57315195e+01
  1654.0000 0.20506986    7.47542963e+01
  1654.5000 0.20513185    7.38175152e+01
  1655.0000 0.20519384    7.29182911e+01
  1655.5000 0.20525583    7.20540134e+01
  1656.0000 0.20531782    7.12223138e+01
  1656.5000 0.20537982    7.04210401e+01
  1657.0000 0.20544181    6.96482322e+01
  1657.5000 0.20550380    6.89021011e+01
  1658.0000 0.20556579    6.81810109e+01
  1658.5000 0.20562779    6.74834632e+01
  1659.0000 0.20568978    6.68080824e+01
  1659.5000 0.20575177    6.61536038e+01
  1660.0000 0.20581376    6.55188627e+01
  1660.5000 0.20587575    6.49027842e+01
  1661.0000 0.20593775    6.43043751e+01
  1661.5000 0.20599974    6.37227160e+01
  1662.0000 0.20606173    6.31569546e+01
  1662.5000 0.20612372    6.26062996e+01
  1663.0000 0.20618571    6.20700151e+01
  1663.5000 0.20624771    6.15474160e+01
  1664.0000 0.20630970    6.10378635e+01
  1664.5000 0.20637169    6.05407611e+01
  1665.0000 0.20643368    6.00555511e+01
  1665.5000 0.20649567    5.95817117e+01
  1666.0000 0.20655767    5.91187537e+01
  1666.5000 0.20661966    5.86662179e+01
  1667.0000 0.20668165    5.82236732e+01
  1667.5000 0.20674364    5.77907141e+01
  1668.0000 0.20680564    5.73669587e+01
  1668.5000 0.20686763    5.69520472e+01
  1669.0000 0.20692962    5.65456401e+01
  1669.5000 0.20699161    5.61474168e+01
  1670.0000 0.20705360    5.57570740e+01
  1670.5000 0.20711560    5.53743251e+01
  1671.0000 0.20717759    5.49988984e+01
  1671.5000 0.20723958    5.46305363e+01
  1672.0000 0.20730157    5.42689946e+01
  1672.5000 0.20736356    5.39140413e+01
  1673.0000 0.20742556    5.35654559e+01
  1673.5000 0.20748755    5.32230286e+01
  1674.0000 0.20754954    5.28865599e+01
  1674.5000 0.20761153    5.25558597e+01
  1675.0000 0.20767352    5.22307466e+01
  1675.5000 0.20773552    5.19110477e+01
  1676.0000 0.20779751    5.15965979e+01
  1676.5000 0.20785950    5.12872396e+01
  1677.0000 0.20792149    5.09828219e+01
  1677.5000 0.20798349    5.06832006e+01
  1678.0000 0.20804548    5.03882377e+01
  1678.5000 0.20810747    5.00978010e+01
  1679.0000 0.20816946    4.98117638e+01
  1679.5000 0.20823145    4.95300045e+01
  1680.0000 0.20829345    4.92524067e+01
  1680.5000 0.20835544    4.89788583e+01
  1681.0000 0.20841743    4.87092519e+01
  1681.5000 0.20847942    4.84434843e+01
  1682.0000 0.20854141    4.81814560e+01
  1682.5000 0.20860341    4.79230716e+01
  1683.0000 0.20866540    4.76682390e+01
  1683.5000 0.20872739    4.74168698e+01
  1684.0000 0.20878938    4.71688786e+01
  1684.5000 0.20885137    4.69241831e+01
  1685.0000 0.20891337    4.66827042e+01
  1685.5000 0.20897536    4.64443653e+01
  1686.0000 0.20903735    4.62090926e+01
  1686.5000 0.20909934    4.59768149e+01
  1687.0000 0.20916133    4.57474633e+01
  1687.5000 0.20922333    4.55209712e+01
  1688.0000 0.20928532    4.52972744e+01
  1688.5000 0.20934731    4.50763108e+01
  1689.0000 0.20940930    4.48580201e+01
  1689.5000 0.20947130    4.46423442e+01
  1690.0000 0.20953329    4.44292267e+01
  1690.5000 0.20959528    4.42186131e+01
  1691.0000 0.20965727    4.40104505e+01
  1691.5000 0.20971926    4.38046876e+01
  1692.0000 0.20978126    4.36012748e+01
  1692.5000 0.20984325    4.34001640e+01
  1693.0000 0.20990524    4.32013084e+01
  1693.5000 0.20996723    4.30046628e+01
  1694.0000 0.21002922    4.28101831e+01
  1694.5000 0.21009122    4.26178266e+01
  1695.0000 0.21015321    4.24275520e+01
  1695.5000 0.21021520    4.22393187e+01
  1696.0000 0.21027719    4.20530879e+01
  1696.5000 0.21033918    4.18688212e+01
  1697.0000 0.21040118    4.16864819e+01
  1697.5000 0.21046317    4.15060339e+01
  1698.0000 0.21052516    4.13274422e+01
  1698.5000 0.21058715    4.11506728e+01
  1699.0000 0.21064915    4.09756926e+01
  1699.5000 0.21071114    4.08024692e+01
  1700.0000 0.21077313    4.06309713e+01
  1700.5000 0.21083512    4.04611683e+01
  1701.0000 0.21089711    4.02930304e+01
  1701.5000 0.21095911    4.01265286e+01
  1702.0000 0.21102110    3.99616346e+01
  1702.5000 0.21108309    3.97983208e+01
  1703.0000 0.21114508    3.96365603e+01
  1703.5000 0.21120707    3.94763270e+01
  1704.0000 0.21126907    3.93175951e+01
  1704.5000 0.21133106    3.91603399e+01
  1705.0000 0.21139305    3.90045369e+01
  1705.5000 0.21145504    3.88501623e+01
  1706.0000 0.21151703    3.86971931e+01
  1706.5000 0.21157903    3.85456065e+01
  1707.0000 0.21164102    3.83953805e+01
  1707.5000 0.21170301    3.82464934e+01
  1708.0000 0.21176500    3.80989241e+01
  1708.5000 0.21182700    3.79526521e+01
  1709.0000 0.21188899    3.78076572e+01
  1709.5000 0.21195098    3.76639197e+01
  1710.0000 0.21201297    3.75214203e+01
  1710.5000 0.21207496    3.73801403e+01
  1711.0000 0.21213696    3.72400613e+01
  1711.5000 0.21219895    3.71011652e+01
  1712.0000 0.21226094    3.69634344e+01
  1712.5000 0.21232293    3.68268518e+01
  1713.0000 0.21238492    3.66914005e+01
  1713.5000 0.21244692    3.65570640e+01
  1714.0000 0.21250891    3.64238261e+01
  1714.5000 0.21257090    3.62916711e+01
  1715.0000 0.21263289    3.61605835e+01
  1715.5000 0.21269488    3.60305481e+01
  1716.0000 0.21275688    3.59015502e+01
  1716.5000 0.21281887    3.57735751e+01
  1717.0000 0.21288086    3.56466087e+01
  1717.5000 0.21294285    3.55206370e+01
  1718.0000 0.21300484    3.53956463e+01
  1718.5000 0.21306684    3.52716233e+01
  1719.0000 0.21312883    3.51485548e+01
  1719.5000 0.21319082    3.50264279e+01
  1720.0000 0.21325281    3.49052301e+01
  1720.5000 0.21331481    3.47849490e+01
  1721.0000 0.21337680    3.46655725e+01
  1721.5000 0.21343879    3.45470886e+01
  1722.0000 0.21350078    3.44294857e+01
  1722.5000 0.21356277    3.43127524e+01
  1723.0000 0.21362477    3.41968774e+01
  1723.5000 0.21368676    3.40818497e+01
  1724.0000 0.21374875    3.39676585e+01
  1724.5000 0.21381074    3.38542932e+01
  1725.0000 0.21387273    3.37417434e+01
  1725.5000 0.21393473    3.36299988e+01
  1726.0000 0.21399672    3.35190494e+01
  1726.5000 0.21405871    3.34088854e+01
  1727.0000 0.21412070    3.32994972e+01
  1727.5000 0.21418269    3.31908751e+01
  1728.0000 0.21424469    3.30830098e+01
  1728.5000 0.21430668    3.29758923e+01
  1729.0000 0.21436867    3.28695134e+01
  1729.5000 0.21443066    3.27638644e+01
  1730.0000 0.21449266    3.26589365e+01
  1730.5000 0.21455465    3.25547212e+01
  1731.0000 0.21461664    3.24512101e+01
  1731.5000 0.21467863    3.23483950e+01
  1732.0000 0.21474062    3.22462678e+01
  1732.5000 0.21480262    3.21448204e+01
  1733.0000 0.21486461    3.20440451e+01
  1733.5000 0.21492660    3.19439341e+01
  1734.0000 0.21498859    3.18444798e+01
  1734.5000 0.21505058    3.17456749e+01
  1735.0000 0.21511258    3.16475120e+01
  1735.5000 0.21517457    3.15499838e+01
  1736.0000 0.21523656    3.14530833e+01
  1736.5000 0.21529855    3.13568035e+01
  1737.0000 0.21536054    3.12611376e+01
  1737.5000 0.21542254    3.11660788e+01
  1738.0000 0.21548453    3.10716204e+01
  1738.5000 0.21554652    3.09777560e+01
  1739.0000 0.21560851    3.08844791e+01
  1739.5000 0.21567051    3.07917833e+01
  1740.0000 0.21573250    3.06996625e+01
  1740.5000 0.21579449    3.06081105e+01
  1741.0000 0.21585648    3.05171212e+01
  1741.5000 0.21591847    3.04266887e+01
  1742.0000 0.21598047    3.03368072e+01
  1742.5000 0.21604246    3.02474710e+01
  1743.0000 0.21610445    3.01586742e+01
  1743.5000 0.21616644    3.00704114e+01
  1744.0000 0.21622843    2.99826770e+01
  1744.5000 0.21629043    2.98954656e+01
  1745.0000 0.21635242    2.98087719e+01
  1745.5000 0.21641441    2.97225906e+01
  1746.0000 0.21647640    2.96369166e+01
  1746.5000 0.21653839    2.95517446e+01
  1747.0000 0.21660039    2.94670698e+01
  1747.5000 0.21666238    2.93828871e+01
  1748.0000 0.21672437    2.92991916e+01
  1748.5000 0.21678636    2.92159786e+01
  1749.0000 0.21684835    2.91332433e+01
  1749.5000 0.21691035    2.90509810e+01
  1750.0000 0.21697234    2.89691870e+01
  1750.5000 0.21703433    2.88878570e+01
  1751.0000 0.21709632    2.88069863e+01
  1751.5000 0.21715832    2.87265706e+01
  1752.0000 0.21722031    2.86466055e+01
  1752.5000 0.21728230    2.85670867e+01
  1753.0000 0.21734429    2.84880100e+01
  1753.5000 0.21740628    2.84093712e+01
  1754.0000 0.21746828    2.83311662e+01
  1754.5000 0.21753027    2.82533910e+01
  1755.0000 0.21759226    2.81760414e+01
  1755.5000 0.21765425    2.80991136e+01
  1756.0000 0.21771624    2.80226037e+01
  1756.5000 0.21777824    2.79465079e+01
  1757.0000 0.21784023    2.78708222e+01
  1757.5000 0.21790222    2.77955431e+01
  1758.0000 0.21796421    2.77206667e+01
  1758.5000 0.21802620    2.76461896e+01
  1759.0000 0.21808820    2.75721080e+01
  1759.5000 0.21815019    2.74984184e+01
  1760.0000 0.21821218    2.74251173e+01
  1760.5000 0.21827417    2.73522013e+01
  1761.0000 0.21833617    2.72796669e+01
  1761.5000 0.21839816    2.72075108e+01
  1762.0000 0.21846015    2.71357297e+01
  1762.5000 0.21852214    2.70643202e+01
  1763.0000 0.21858413    2.69932793e+01
  1763.5000 0.21864613    2.69226035e+01
  1764.0000 0.21870812    2.68522898e+01
  1764.5000 0.21877011    2.67823351e+01
  1765.0000 0.21883210    2.67127364e+01
  1765.5000 0.21889409    2.66434904e+01
  1766.0000 0.21895609    2.65745943e+01
  1766.5000 0.21901808    2.65060452e+01
  1767.0000 0.21908007    2.64378399e+01
  1767.5000 0.21914206    2.63699758e+01
  1768.0000 0.21920405    2.63024499e+01
  1768.5000 0.21926605    2.62352593e+01
  1769.0000 0.21932804    2.61684014e+01
  1769.5000 0.21939003    2.61018734e+01
  1770.0000 0.21945202    2.60356725e+01
  1770.5000 0.21951402    2.59697961e+01
  1771.0000 0.21957601    2.59042414e+01
  1771.5000 0.21963800    2.58390060e+01
  1772.0000 0.21969999    2.57740871e+01
  1772.5000 0.21976198    2.57094823e+01
  1773.0000 0.21982398    2.56451890e+01
  1773.5000 0.21988597    2.55812046e+01
  1774.0000 0.21994796    2.55175269e+01
  1774.5000 0.22000995    2.54541532e+01
  1775.0000 0.22007194    2.53910812e+01
  1775.5000 0.22013394    2.53283084e+01
  1776.0000 0.22019593    2.52658327e+01
  1776.5000 0.22025792    2.52036515e+01
  1777.0000 0.22031991    2.51417626e+01
  1777.5000 0.22038190    2.50801638e+01
  1778.0000 0.22044390    2.50188527e+01
  1778.5000 0.22050589    2.49578272e+01
  1779.0000 0.22056788    2.48970850e+01
  1779.5000 0.22062987    2.48366240e+01
  1780.0000 0.22069186    2.47764420e+01
  1780.5000 0.22075386    2.47165370e+01
  1781.0000 0.22081585    2.46569067e+01
  1781.5000 0.22087784    2.45975491e+01
  1782.0000 0.22093983    2.45384622e+01
  1782.5000 0.22100183    2.44796439e+01
  1783.0000 0.22106382    2.44210922e+01
  1783.5000 0.22112581    2.43628051e+01
  1784.0000 0.22118780    2.43047807e+01
  1784.5000 0.22124979    2.42470169e+01
  1785.0000 0.22131179    2.41895120e+01
  1785.5000 0.22137378    2.41322639e+01
  1786.0000 0.22143577    2.40752708e+01
  1786.5000 0.22149776    2.40185309e+01
  1787.0000 0.22155975    2.39620422e+01
  1787.5000 0.22162175    2.39058029e+01
  1788.0000 0.22168374    2.38498114e+01
  1788.5000 0.22174573    2.37940656e+01
  1789.0000 0.22180772    2.37385640e+01
  1789.5000 0.22186971    2.36833047e+01
  1790.0000 0.22193171    2.36282861e+01
  1790.5000 0.22199370    2.35735063e+01
  1791.0000 0.22205569    2.35189637e+01
  1791.5000 0.22211768    2.34646567e+01
  1792.0000 0.22217968    2.34105836e+01
  1792.5000 0.22224167    2.33567426e+01
  1793.0000 0.22230366    2.33031323e+01
  1793.5000 0.22236565    2.32497510e+01
  1794.0000 0.22242764    2.31965971e+01
  1794.5000 0.22248964    2.31436690e+01
  1795.0000 0.22255163    2.30909652e+01
  1795.5000 0.22261362    2.30384840e+01
  1796.0000 0.22267561    2.29862241e+01
  1796.5000 0.22273760    2.29341839e+01
  1797.0000 0.22279960    2.28823618e+01
  1797.5000 0.22286159    2.28307564e+01
  1798.0000 0.22292358    2.27793663e+01
  1798.5000 0.22298557    2.27281899e+01
  1799.0000 0.22304756    2.26772258e+01
  1799.5000 0.22310956    2.26264727e+01
  1800.0000 0.22317155    2.25759290e+01
  1800.5000 0.22323354    2.25255934e+01
  1801.0000 0.22329553    2.24754645e+01
  1801.5000 0.22335753    2.24255410e+01
  1802.0000 0.22341952    2.23758214e+01
  1802.5000 0.22348151    2.23263045e+01
  1803.0000 0.22354350    2.22769889e+01
  1803.5000 0.22360549    2.22278733e+01
  1804.0000 0.22366749    2.21789563e+01
  1804.5000 0.22372948    2.21302367e+01
  1805.0000 0.22379147    2.20817132e+01
  1805.5000 0.22385346    2.20333845e+01
  1806.0000 0.22391545    2.19852494e+01
  1806.5000 0.22397745    2.19373067e+01
  1807.0000 0.22403944    2.18895550e+01
  1807.5000 0.22410143    2.18419932e+01
  1808.0000 0.22416342    2.17946200e+01
  1808.5000 0.22422541    2.17474343e+01
  1809.0000 0.22428741    2.17004349e+01
  1809.5000 0.22434940    2.16536205e+01
  1810.0000 0.22441139    2.16069901e+01
  1810.5000 0.22447338    2.15605424e+01
  1811.0000 0.22453537    2.15142764e+01
  1811.5000 0.22459737    2.14681908e+01
  1812.0000 0.22465936    2.14222846e+01
  1812.5000 0.22472135    2.13765567e+01
  1813.0000 0.22478334    2.13310058e+01
  1813.5000 0.22484534    2.12856311e+01
  1814.0000 0.22490733    2.12404312e+01
  1814.5000 0.22496932    2.11954053e+01
  1815.0000 0.22503131    2.11505522e+01
  1815.5000 0.22509330    2.11058708e+01
  1816.0000 0.22515530    2.10613602e+01
  1816.5000 0.22521729    2.10170192e+01
  1817.0000 0.22527928    2.09728469e+01
  1817.5000 0.22534127    2.09288422e+01
  1818.0000 0.22540326    2.08850042e+01
  1818.5000 0.22546526    2.08413317e+01
  1819.0000 0.22552725    2.07978239e+01
  1819.5000 0.22558924    2.07544797e+01
  1820.0000 0.22565123    2.07112982e+01
  1820.5000 0.22571322    2.06682784e+01
  1821.0000 0.22577522    2.06254193e+01
  1821.5000 0.22583721    2.05827200e+01
  1822.0000 0.22589920    2.05401796e+01
  1822.5000 0.22596119    2.04977970e+01
  1823.0000 0.22602319    2.04555715e+01
  1823.5000 0.22608518    2.04135020e+01
  1824.0000 0.22614717    2.03715877e+01
  1824.5000 0.22620916    2.03298276e+01
  1825.0000 0.22627115    2.02882209e+01
  1825.5000 0.22633315    2.02467667e+01
  1826.0000 0.22639514    2.02054640e+01
  1826.5000 0.22645713    2.01643121e+01
  1827.0000 0.22651912    2.01233100e+01
  1827.5000 0.22658111    2.00824569e+01
  1828.0000 0.22664311    2.00417520e+01
  1828.5000 0.22670510    2.00011943e+01
  1829.0000 0.22676709    1.99607831e+01
  1829.5000 0.22682908    1.99205176e+01
  1830.0000 0.22689107    1.98803968e+01
  1830.5000 0.22695307    1.98404201e+01
  1831.0000 0.22701506    1.98005865e+01
  1831.5000 0.22707705    1.97608953e+01
  1832.0000 0.22713904    1.97213457e+01
  1832.5000 0.22720104    1.96819368e+01
  1833.0000 0.22726303    1.96426680e+01
  1833.5000 0.22732502    1.96035384e+01
  1834.0000 0.22738701    1.95645472e+01
  1834.5000 0.22744900    1.95256937e+01
  1835.0000 0.22751100    1.94869772e+01
  1835.5000 0.22757299    1.94483968e+01
  1836.0000 0.22763498    1.94099519e+01
  1836.5000 0.22769697    1.93716416e+01
  1837.0000 0.22775896    1.93334653e+01
  1837.5000 0.22782096    1.92954223e+01
  1838.0000 0.22788295    1.92575117e+01
  1838.5000 0.22794494    1.92197329e+01
  1839.0000 0.22800693    1.91820851e+01
  1839.5000 0.22806892    1.91445678e+01
  1840.0000 0.22813092    1.91071800e+01
  1840.5000 0.22819291    1.90699213e+01
  1841.0000 0.22825490    1.90327908e+01
  1841.5000 0.22831689    1.89957879e+01
  1842.0000 0.22837888    1.89589119e+01
  1842.5000 0.22844088    1.89221621e+01
  1843.0000 0.22850287    1.88855379e+01
  1843.5000 0.22856486    1.88490386e+01
  1844.0000 0.22862685    1.88126636e+01
  1844.5000 0.22868885    1.87764121e+01
  1845.0000 0.22875084    1.87402835e+01
  1845.5000 0.22881283    1.87042772e+01
  1846.0000 0.22887482    1.86683926e+01
  1846.5000 0.22893681    1.86326290e+01
  1847.0000 0.22899881    1.85969858e+01
  1847.5000 0.22906080    1.85614623e+01
  1848.0000 0.22912279    1.85260579e+01
  1848.5000 0.22918478    1.84907721e+01
  1849.0000 0.22924677    1.84556042e+01
  1849.5000 0.22930877    1.84205536e+01
  1850.0000 0.22937076    1.83856197e+01
  1850.5000 0.22943275    1.83508019e+01
  1851.0000 0.22949474    1.83160996e+01
  1851.5000 0.22955673    1.82815122e+01
  1852.0000 0.22961873    1.82470391e+01
  1852.5000 0.22968072    1.82126798e+01
  1853.0000 0.22974271    1.81784337e+01
  1853.5000 0.22980470    1.81443002e+01
  1854.0000 0.22986670    1.81102787e+01
  1854.5000 0.22992869    1.80763687e+01
  1855.0000 0.22999068    1.80425696e+01
  1855.5000 0.23005267    1.80088808e+01
  1856.0000 0.23011466    1.79753018e+01
  1856.5000 0.23017666    1.79418321e+01
  1857.0000 0.23023865    1.79084712e+01
  1857.5000 0.23030064    1.78752183e+01
  1858.0000 0.23036263    1.78420732e+01
  1858.5000 0.23042462    1.78090351e+01
  1859.0000 0.23048662    1.77761036e+01
  1859.5000 0.23054861    1.77432781e+01
  1860.0000 0.23061060    1.77105582e+01
  1860.5000 0.23067259    1.76779432e+01
  1861.0000 0.23073458    1.76454328e+01
  1861.5000 0.23079658    1.76130264e+01
  1862.0000 0.23085857    1.75807234e+01
  1862.5000 0.23092056    1.75485234e+01
  1863.0000 0.23098255    1.75164259e+01
  1863.5000 0.23104455    1.74844303e+01
  1864.0000 0.23110654    1.74525363e+01
  1864.5000 0.23116853    1.74207432e+01
  1865.0000 0.23123052    1.73890506e+01
  1865.5000 0.23129251    1.73574581e+01
  1866.0000 0.23135451    1.73259651e+01
  1866.5000 0.23141650    1.72945712e+01
  1867.0000 0.23147849    1.72632759e+01
  1867.5000 0.23154048    1.72320788e+01
  1868.0000 0.23160247    1.72009792e+01
  1868.5000 0.23166447    1.71699769e+01
  1869.0000 0.23172646    1.71390713e+01
  1869.5000 0.23178845    1.71082621e+01
  1870.0000 0.23185044    1.70775486e+01
  1870.5000 0.23191243    1.70469305e+01
  1871.0000 0.23197443    1.70164073e+01
  1871.5000 0.23203642    1.69859787e+01
  1872.0000 0.23209841    1.69556440e+01
  1872.5000 0.23216040    1.69254030e+01
  1873.0000 0.23222239    1.68952551e+01
  1873.5000 0.23228439    1.68652000e+01
  1874.0000 0.23234638    1.68352372e+01
  1874.5000 0.23240837    1.68053662e+01
  1875.0000 0.23247036    1.67755867e+01
  1875.5000 0.23253236    1.67458983e+01
  1876.0000 0.23259435    1.67163004e+01
  1876.5000 0.23265634    1.66867927e+01
  1877.0000 0.23271833    1.66573749e+01
  1877.5000 0.23278032    1.66280463e+01
  1878.0000 0.23284232    1.65988068e+01
  1878.5000 0.23290431    1.65696558e+01
  1879.0000 0.23296630    1.65405930e+01
  1879.5000 0.23302829    1.65116179e+01
  1880.0000 0.23309028    1.64827301e+01
  1880.5000 0.23315228    1.64539294e+01
  1881.0000 0.23321427    1.64252152e+01
  1881.5000 0.23327626    1.63965871e+01
  1882.0000 0.23333825    1.63680449e+01
  1882.5000 0.23340024    1.63395881e+01
  1883.0000 0.23346224    1.63112163e+01
  1883.5000 0.23352423    1.62829291e+01
  1884.0000 0.23358622    1.62547262e+01
  1884.5000 0.23364821    1.62266072e+01
  1885.0000 0.23371021    1.61985717e+01
  1885.5000 0.23377220    1.61706193e+01
  1886.0000 0.23383419    1.61427497e+01
  1886.5000 0.23389618    1.61149626e+01
  1887.0000 0.23395817    1.60872574e+01
  1887.5000 0.23402017    1.60596340e+01
  1888.0000 0.23408216    1.60320919e+01
  1888.5000 0.23414415    1.60046307e+01
  1889.0000 0.23420614    1.59772502e+01
  1889.5000 0.23426813    1.59499499e+01
  1890.0000 0.23433013    1.59227296e+01
  1890.5000 0.23439212    1.58955888e+01
  1891.0000 0.23445411    1.58685272e+01
  1891.5000 0.23451610    1.58415445e+01
  1892.0000 0.23457809    1.58146403e+01
  1892.5000 0.23464009    1.57878143e+01
  1893.0000 0.23470208    1.57610662e+01
  1893.5000 0.23476407    1.57343956e+01
  1894.0000 0.23482606    1.57078021e+01
  1894.5000 0.23488806    1.56812856e+01
  1895.0000 0.23495005    1.56548455e+01
  1895.5000 0.23501204    1.56284816e+01
  1896.0000 0.23507403    1.56021937e+01
  1896.5000 0.23513602    1.55759812e+01
  1897.0000 0.23519802    1.55498440e+01
  1897.5000 0.23526001    1.55237817e+01
  1898.0000 0.23532200    1.54977939e+01
  1898.5000 0.23538399    1.54718805e+01
  1899.0000 0.23544598    1.54460410e+01
  1899.5000 0.23550798    1.54202751e+01
  1900.0000 0.23556997    1.53945826e+01
  1900.5000 0.23563196    1.53689631e+01
  1901.0000 0.23569395    1.53434164e+01
  1901.5000 0.23575594    1.53179420e+01
  1902.0000 0.23581794    1.52925398e+01
  1902.5000 0.23587993    1.52672093e+01
  1903.0000 0.23594192    1.52419504e+01
  1903.5000 0.23600391    1.52167627e+01
  1904.0000 0.23606590    1.51916459e+01
  1904.5000 0.23612790    1.51665998e+01
  1905.0000 0.23618989    1.51416239e+01
  1905.5000 0.23625188    1.51167181e+01
  1906.0000 0.23631387    1.50918821e+01
  1906.5000 0.23637587    1.50671155e+01
  1907.0000 0.23643786    1.50424181e+01
  1907.5000 0.23649985    1.50177896e+01
  1908.0000 0.23656184    1.49932298e+01
  1908.5000 0.23662383    1.49687382e+01
  1909.0000 0.23668583    1.49443147e+01
  1909.5000 0.23674782    1.49199590e+01
  1910.0000 0.23680981    1.48956707e+01
  1910.5000 0.23687180    1.48714497e+01
  1911.0000 0.23693379    1.48472957e+01
  1911.5000 0.23699579    1.48232083e+01
  1912.0000 0.23705778    1.47991874e+01
  1912.5000 0.23711977    1.47752325e+01
  1913.0000 0.23718176    1.47513436e+01
  1913.5000 0.23724375    1.47275203e+01
  1914.0000 0.23730575    1.47037623e+01
  1914.5000 0.23736774    1.46800694e+01
  1915.0000 0.23742973    1.46564413e+01
  1915.5000 0.23749172    1.46328778e+01
  1916.0000 0.23755372    1.46093786e+01
  1916.5000 0.23761571    1.45859435e+01
  1917.0000 0.23767770    1.45625721e+01
  1917.5000 0.23773969    1.45392643e+01
  1918.0000 0.23780168    1.45160198e+01
  1918.5000 0.23786368    1.44928383e+01
  1919.0000 0.23792567    1.44697196e+01
  1919.5000 0.23798766    1.44466635e+01
  1920.0000 0.23804965    1.44236696e+01
  1920.5000 0.23811164    1.44007378e+01
  1921.0000 0.23817364    1.43778678e+01
  1921.5000 0.23823563    1.43550594e+01
  1922.0000 0.23829762    1.43323123e+01
  1922.5000 0.23835961    1.43096263e+01
  1923.0000 0.23842160    1.42870011e+01
  1923.5000 0.23848360    1.42644366e+01
  1924.0000 0.23854559    1.42419324e+01
  1924.5000 0.23860758    1.42194883e+01
  1925.0000 0.23866957    1.41971042e+01
  1925.5000 0.23873157    1.41747797e+01
  1926.0000 0.23879356    1.41525147e+01
  1926.5000 0.23885555    1.41303088e+01
  1927.0000 0.23891754    1.41081620e+01
  1927.5000 0.23897953    1.40860739e+01
  1928.0000 0.23904153    1.40640444e+01
  1928.5000 0.23910352    1.40420731e+01
  1929.0000 0.23916551    1.40201600e+01
  1929.5000 0.23922750    1.39983047e+01
  1930.0000 0.23928949    1.39765070e+01
  1930.5000 0.23935149    1.39547667e+01
  1931.0000 0.23941348    1.39330837e+01
  1931.5000 0.23947547    1.39114577e+01
  1932.0000 0.23953746    1.38898884e+01
  1932.5000 0.23959945    1.38683756e+01
  1933.0000 0.23966145    1.38469192e+01
  1933.5000 0.23972344    1.38255189e+01
  1934.0000 0.23978543    1.38041746e+01
  1934.5000 0.23984742    1.37828859e+01
  1935.0000 0.23990941    1.37616527e+01
  1935.5000 0.23997141    1.37404749e+01
  1936.0000 0.24003340    1.37193521e+01
  1936.5000 0.24009539    1.36982841e+01
  1937.0000 0.24015738    1.36772708e+01
  1937.5000 0.24021938    1.36563120e+01
  1938.0000 0.24028137    1.36354075e+01
  1938.5000 0.24034336    1.36145570e+01
  1939.0000 0.24040535    1.35937603e+01
  1939.5000 0.24046734    1.35730173e+01
  1940.0000 0.24052934    1.35523278e+01
  1940.5000 0.24059133    1.35316915e+01
  1941.0000 0.24065332    1.35111083e+01
  1941.5000 0.24071531    1.34905779e+01
  1942.0000 0.24077730    1.34701002e+01
  1942.5000 0.24083930    1.34496750e+01
  1943.0000 0.24090129    1.34293021e+01
  1943.5000 0.24096328    1.34089813e+01
  1944.0000 0.24102527    1.33887123e+01
  1944.5000 0.24108726    1.33684951e+01
  1945.0000 0.24114926    1.33483294e+01
  1945.5000 0.24121125    1.33282150e+01
  1946.0000 0.24127324    1.33081518e+01
  1946.5000 0.24133523    1.32881396e+01
  1947.0000 0.24139723    1.32681781e+01
  1947.5000 0.24145922    1.32482672e+01
  1948.0000 0.24152121    1.32284067e+01
  1948.5000 0.24158320    1.32085964e+01
  1949.0000 0.24164519    1.31888362e+01
  1949.5000 0.24170719    1.31691258e+01
  1950.0000 0.24176918    1.31494652e+01
  1950.5000 0.24183117    1.31298540e+01
  1951.0000 0.24189316    1.31102921e+01
  1951.5000 0.24195515    1.30907794e+01
  1952.0000 0.24201715    1.30713157e+01
  1952.5000 0.24207914    1.30519008e+01
  1953.0000 0.24214113    1.30325345e+01
  1953.5000 0.24220312    1.30132166e+01
  1954.0000 0.24226511    1.29939471e+01
  1954.5000 0.24232711    1.29747256e+01
  1955.0000 0.24238910    1.29555521e+01
  1955.5000 0.24245109    1.29364263e+01
  1956.0000 0.24251308    1.29173481e+01
  1956.5000 0.24257508    1.28983174e+01
  1957.0000 0.24263707    1.28793339e+01
  1957.5000 0.24269906    1.28603975e+01
  1958.0000 0.24276105    1.28415080e+01
  1958.5000 0.24282304    1.28226653e+01
  1959.0000 0.24288504    1.28038692e+01
  1959.5000 0.24294703    1.27851195e+01
  1960.0000 0.24300902    1.27664161e+01
  1960.5000 0.24307101    1.27477588e+01
  1961.0000 0.24313300    1.27291475e+01
  1961.5000 0.24319500    1.27105819e+01
  1962.0000 0.24325699    1.26920620e+01
  1962.5000 0.24331898    1.26735876e+01
  1963.0000 0.24338097    1.26551584e+01
  1963.5000 0.24344296    1.26367744e+01
  1964.0000 0.24350496    1.26184354e+01
  1964.5000 0.24356695    1.26001413e+01
  1965.0000 0.24362894    1.25818918e+01
  1965.5000 0.24369093    1.25636869e+01
  1966.0000 0.24375292    1.25455263e+01
  1966.5000 0.24381492    1.25274100e+01
  1967.0000 0.24387691    1.25093377e+01
  1967.5000 0.24393890    1.24913094e+01
  1968.0000 0.24400089    1.24733248e+01
  1968.5000 0.24406289    1.24553838e+01
  1969.0000 0.24412488    1.24374864e+01
  1969.5000 0.24418687    1.24196322e+01
  1970.0000 0.24424886    1.24018213e+01
  1970.5000 0.24431085    1.23840533e+01
  1971.0000 0.24437285    1.23663282e+01
  1971.5000 0.24443484    1.23486459e+01
  1972.0000 0.24449683    1.23310062e+01
  1972.5000 0.24455882    1.23134089e+01
  1973.0000 0.24462081    1.22958539e+01
  1973.5000 0.24468281    1.22783411e+01
  1974.0000 0.24474480    1.22608703e+01
  1974.5000 0.24480679    1.22434414e+01
  1975.0000 0.24486878    1.22260542e+01
  1975.5000 0.24493077    1.22087086e+01
  1976.0000 0.24499277    1.21914044e+01
  1976.5000 0.24505476    1.21741416e+01
  1977.0000 0.24511675    1.21569199e+01
  1977.5000 0.24517874    1.21397393e+01
  1978.0000 0.24524074    1.21225996e+01
  1978.5000 0.24530273    1.21055007e+01
  1979.0000 0.24536472    1.20884424e+01
  1979.5000 0.24542671    1.20714245e+01
  1980.0000 0.24548870    1.20544471e+01
  1980.5000 0.24555070    1.20375099e+01
  1981.0000 0.24561269    1.20206127e+01
  1981.5000 0.24567468    1.20037555e+01
  1982.0000 0.24573667    1.19869382e+01
  1982.5000 0.24579866    1.19701605e+01
  1983.0000 0.24586066    1.19534224e+01
  1983.5000 0.24592265    1.19367238e+01
  1984.0000 0.24598464    1.19200644e+01
  1984.5000 0.24604663    1.19034443e+01
  1985.0000 0.24610862    1.18868631e+01
  1985.5000 0.24617062    1.18703209e+01
  1986.0000 0.24623261    1.18538175e+01
  1986.5000 0.24629460    1.18373528e+01
  1987.0000 0.24635659    1.18209265e+01
  1987.5000 0.24641859    1.18045387e+01
  1988.0000 0.24648058    1.17881892e+01
  1988.5000 0.24654257    1.17718779e+01
  1989.0000 0.24660456    1.17556045e+01
  1989.5000 0.24666655    1.17393691e+01
  1990.0000 0.24672855    1.17231715e+01
  1990.5000 0.24679054    1.17070116e+01
  1991.0000 0.24685253    1.16908892e+01
  1991.5000 0.24691452    1.16748042e+01
  1992.0000 0.24697651    1.16587566e+01
  1992.5000 0.24703851    1.16427461e+01
  1993.0000 0.24710050    1.16267727e+01
  1993.5000 0.24716249    1.16108363e+01
  1994.0000 0.24722448    1.15949366e+01
  1994.5000 0.24728647    1.15790737e+01
  1995.0000 0.24734847    1.15632474e+01
  1995.5000 0.24741046    1.15474575e+01
  1996.0000 0.24747245    1.15317040e+01
  1996.5000 0.24753444    1.15159868e+01
  1997.0000 0.24759643    1.15003056e+01
  1997.5000 0.24765843    1.14846605e+01
  1998.0000 0.24772042    1.14690513e+01
  1998.5000 0.24778241    1.14534779e+01
  1999.0000 0.24784440    1.14379401e+01
  1999.5000 0.24790640    1.14224379e+01
  2000.0000 0.24796839    1.14069711e+01
