# 
# Calculated Spectral Density
# Lineshape: lor
# Linewidths (cm^-1): 5.0 
# 
# E (cm^-1)     E (eV)  Spectral Density (cm^-1)
# 
     0.0000 0.00000000    9.76267479e+00
     0.5000 0.00006199    9.84488245e+00
     1.0000 0.00012398    9.92964811e+00
     1.5000 0.00018598    1.00170913e+01
     2.0000 0.00024797    1.01073386e+01
     2.5000 0.00030996    1.02005246e+01
     3.0000 0.00037195    1.02967916e+01
     3.5000 0.00043394    1.03962913e+01
     4.0000 0.00049594    1.04991846e+01
     4.5000 0.00055793    1.06056428e+01
     5.0000 0.00061992    1.07158483e+01
     5.5000 0.00068191    1.08299951e+01
     6.0000 0.00074391    1.09482906e+01
     6.5000 0.00080590    1.10709558e+01
     7.0000 0.00086789    1.11982267e+01
     7.5000 0.00092988    1.13303559e+01
     8.0000 0.00099187    1.14676134e+01
     8.5000 0.00105387    1.16102886e+01
     9.0000 0.00111586    1.17586915e+01
     9.5000 0.00117785    1.19131552e+01
    10.0000 0.00123984    1.20740370e+01
    10.5000 0.00130183    1.22417215e+01
    11.0000 0.00136383    1.24166226e+01
    11.5000 0.00142582    1.25991862e+01
    12.0000 0.00148781    1.27898935e+01
    12.5000 0.00154980    1.29892644e+01
    13.0000 0.00161179    1.31978608e+01
    13.5000 0.00167379    1.34162913e+01
    14.0000 0.00173578    1.36452156e+01
    14.5000 0.00179777    1.38853498e+01
    15.0000 0.00185976    1.41374723e+01
    15.5000 0.00192176    1.44024304e+01
    16.0000 0.00198375    1.46811475e+01
    16.5000 0.00204574    1.49746317e+01
    17.0000 0.00210773    1.52839851e+01
    17.5000 0.00216972    1.56104142e+01
    18.0000 0.00223172    1.59552424e+01
    18.5000 0.00229371    1.63199232e+01
    19.0000 0.00235570    1.67060561e+01
    19.5000 0.00241769    1.71154039e+01
    20.0000 0.00247968    1.75499135e+01
    20.5000 0.00254168    1.80117384e+01
    21.0000 0.00260367    1.85032654e+01
    21.5000 0.00266566    1.90271455e+01
    22.0000 0.00272765    1.95863282e+01
    22.5000 0.00278964    2.01841027e+01
    23.0000 0.00285164    2.08241441e+01
    23.5000 0.00291363    2.15105677e+01
    24.0000 0.00297562    2.22479923e+01
    24.5000 0.00303761    2.30416127e+01
    25.0000 0.00309960    2.38972851e+01
    25.5000 0.00316160    2.48216264e+01
    26.0000 0.00322359    2.58221298e+01
    26.5000 0.00328558    2.69073009e+01
    27.0000 0.00334757    2.80868149e+01
    27.5000 0.00340957    2.93717026e+01
    28.0000 0.00347156    3.07745651e+01
    28.5000 0.00353355    3.23098253e+01
    29.0000 0.00359554    3.39940186e+01
    29.5000 0.00365753    3.58461275e+01
    30.0000 0.00371953    3.78879628e+01
    30.5000 0.00378152    4.01445922e+01
    31.0000 0.00384351    4.26448090e+01
    31.5000 0.00390550    4.54216287e+01
    32.0000 0.00396749    4.85127817e+01
    32.5000 0.00402949    5.19611459e+01
    33.0000 0.00409148    5.58150224e+01
    33.5000 0.00415347    6.01280937e+01
    34.0000 0.00421546    6.49588060e+01
    34.5000 0.00427745    7.03687798e+01
    35.0000 0.00433945    7.64196638e+01
    35.5000 0.00440144    8.31676087e+01
    36.0000 0.00446343    9.06543030e+01
    36.5000 0.00452542    9.88933780e+01
    37.0000 0.00458742    1.07851223e+02
    37.5000 0.00464941    1.17422274e+02
    38.0000 0.00471140    1.27401260e+02
    38.5000 0.00477339    1.37459116e+02
    39.0000 0.00483538    1.47134773e+02
    39.5000 0.00489738    1.55858984e+02
    40.0000 0.00495937    1.63023306e+02
    40.5000 0.00502136    1.68092063e+02
    41.0000 0.00508335    1.70729806e+02
    41.5000 0.00514534    1.70896450e+02
    42.0000 0.00520734    1.68866963e+02
    42.5000 0.00526933    1.65166064e+02
    43.0000 0.00533132    1.60448854e+02
    43.5000 0.00539331    1.55376756e+02
    44.0000 0.00545530    1.50526753e+02
    44.5000 0.00551730    1.46346024e+02
    45.0000 0.00557929    1.43143241e+02
    45.5000 0.00564128    1.41099551e+02
    46.0000 0.00570327    1.40283859e+02
    46.5000 0.00576527    1.40662672e+02
    47.0000 0.00582726    1.42100754e+02
    47.5000 0.00588925    1.44354349e+02
    48.0000 0.00595124    1.47064049e+02
    48.5000 0.00601323    1.49759441e+02
    49.0000 0.00607523    1.51890029e+02
    49.5000 0.00613722    1.52892332e+02
    50.0000 0.00619921    1.52287930e+02
    50.5000 0.00626120    1.49785782e+02
    51.0000 0.00632319    1.45348591e+02
    51.5000 0.00638519    1.39192472e+02
    52.0000 0.00644718    1.31720025e+02
    52.5000 0.00650917    1.23417865e+02
    53.0000 0.00657116    1.14759168e+02
    53.5000 0.00663315    1.06138416e+02
    54.0000 0.00669515    9.78442463e+01
    54.5000 0.00675714    9.00614766e+01
    55.0000 0.00681913    8.28889016e+01
    55.5000 0.00688112    7.63619239e+01
    56.0000 0.00694311    7.04735519e+01
    56.5000 0.00700511    6.51910964e+01
    57.0000 0.00706710    6.04681856e+01
    57.5000 0.00712909    5.62527664e+01
    58.0000 0.00719108    5.24920575e+01
    58.5000 0.00725308    4.91353575e+01
    59.0000 0.00731507    4.61354354e+01
    59.5000 0.00737706    4.34490496e+01
    60.0000 0.00743905    4.10369981e+01
    60.5000 0.00750104    3.88640015e+01
    61.0000 0.00756304    3.68986231e+01
    61.5000 0.00762503    3.51133149e+01
    62.0000 0.00768702    3.34845365e+01
    62.5000 0.00774901    3.19927788e+01
    63.0000 0.00781100    3.06223146e+01
    63.5000 0.00787300    2.93606257e+01
    64.0000 0.00793499    2.81976231e+01
    64.5000 0.00799698    2.71248660e+01
    65.0000 0.00805897    2.61349482e+01
    65.5000 0.00812096    2.52211128e+01
    66.0000 0.00818296    2.43770625e+01
    66.5000 0.00824495    2.35968972e+01
    67.0000 0.00830694    2.28751103e+01
    67.5000 0.00836893    2.22066030e+01
    68.0000 0.00843093    2.15866924e+01
    68.5000 0.00849292    2.10111082e+01
    69.0000 0.00855491    2.04759768e+01
    69.5000 0.00861690    1.99777977e+01
    70.0000 0.00867889    1.95134151e+01
    70.5000 0.00874089    1.90799867e+01
    71.0000 0.00880288    1.86749536e+01
    71.5000 0.00886487    1.82960108e+01
    72.0000 0.00892686    1.79410806e+01
    72.5000 0.00898885    1.76082877e+01
    73.0000 0.00905085    1.72959370e+01
    73.5000 0.00911284    1.70024944e+01
    74.0000 0.00917483    1.67265687e+01
    74.5000 0.00923682    1.64668964e+01
    75.0000 0.00929881    1.62223281e+01
    75.5000 0.00936081    1.59918163e+01
    76.0000 0.00942280    1.57744051e+01
    76.5000 0.00948479    1.55692204e+01
    77.0000 0.00954678    1.53754618e+01
    77.5000 0.00960878    1.51923955e+01
    78.0000 0.00967077    1.50193472e+01
    78.5000 0.00973276    1.48556972e+01
    79.0000 0.00979475    1.47008742e+01
    79.5000 0.00985674    1.45543518e+01
    80.0000 0.00991874    1.44156437e+01
    80.5000 0.00998073    1.42843002e+01
    81.0000 0.01004272    1.41599051e+01
    81.5000 0.01010471    1.40420728e+01
    82.0000 0.01016670    1.39304454e+01
    82.5000 0.01022870    1.38246905e+01
    83.0000 0.01029069    1.37244992e+01
    83.5000 0.01035268    1.36295838e+01
    84.0000 0.01041467    1.35396765e+01
    84.5000 0.01047666    1.34545274e+01
    85.0000 0.01053866    1.33739036e+01
    85.5000 0.01060065    1.32975872e+01
    86.0000 0.01066264    1.32253748e+01
    86.5000 0.01072463    1.31570760e+01
    87.0000 0.01078662    1.30925126e+01
    87.5000 0.01084862    1.30315177e+01
    88.0000 0.01091061    1.29739347e+01
    88.5000 0.01097260    1.29196167e+01
    89.0000 0.01103459    1.28684261e+01
    89.5000 0.01109659    1.28202333e+01
    90.0000 0.01115858    1.27749167e+01
    90.5000 0.01122057    1.27323621e+01
    91.0000 0.01128256    1.26924619e+01
    91.5000 0.01134455    1.26551148e+01
    92.0000 0.01140655    1.26202258e+01
    92.5000 0.01146854    1.25877049e+01
    93.0000 0.01153053    1.25574679e+01
    93.5000 0.01159252    1.25294351e+01
    94.0000 0.01165451    1.25035314e+01
    94.5000 0.01171651    1.24796861e+01
    95.0000 0.01177850    1.24578327e+01
    95.5000 0.01184049    1.24379083e+01
    96.0000 0.01190248    1.24198536e+01
    96.5000 0.01196447    1.24036127e+01
    97.0000 0.01202647    1.23891331e+01
    97.5000 0.01208846    1.23763652e+01
    98.0000 0.01215045    1.23652621e+01
    98.5000 0.01221244    1.23557800e+01
    99.0000 0.01227444    1.23478772e+01
    99.5000 0.01233643    1.23415149e+01
   100.0000 0.01239842    1.23366565e+01
   100.5000 0.01246041    1.23332674e+01
   101.0000 0.01252240    1.23313153e+01
   101.5000 0.01258440    1.23307701e+01
   102.0000 0.01264639    1.23316032e+01
   102.5000 0.01270838    1.23337884e+01
   103.0000 0.01277037    1.23373008e+01
   103.5000 0.01283236    1.23421175e+01
   104.0000 0.01289436    1.23482173e+01
   104.5000 0.01295635    1.23555803e+01
   105.0000 0.01301834    1.23641886e+01
   105.5000 0.01308033    1.23740255e+01
   106.0000 0.01314232    1.23850760e+01
   106.5000 0.01320432    1.23973263e+01
   107.0000 0.01326631    1.24107644e+01
   107.5000 0.01332830    1.24253795e+01
   108.0000 0.01339029    1.24411622e+01
   108.5000 0.01345229    1.24581048e+01
   109.0000 0.01351428    1.24762009e+01
   109.5000 0.01357627    1.24954453e+01
   110.0000 0.01363826    1.25158347e+01
   110.5000 0.01370025    1.25373670e+01
   111.0000 0.01376225    1.25600418e+01
   111.5000 0.01382424    1.25838598e+01
   112.0000 0.01388623    1.26088235e+01
   112.5000 0.01394822    1.26349364e+01
   113.0000 0.01401021    1.26622029e+01
   113.5000 0.01407221    1.26906280e+01
   114.0000 0.01413420    1.27202163e+01
   114.5000 0.01419619    1.27509710e+01
   115.0000 0.01425818    1.27828918e+01
   115.5000 0.01432017    1.28159735e+01
   116.0000 0.01438217    1.28502029e+01
   116.5000 0.01444416    1.28855573e+01
   117.0000 0.01450615    1.29220033e+01
   117.5000 0.01456814    1.29594989e+01
   118.0000 0.01463013    1.29980000e+01
   118.5000 0.01469213    1.30374689e+01
   119.0000 0.01475412    1.30778863e+01
   119.5000 0.01481611    1.31192586e+01
   120.0000 0.01487810    1.31616200e+01
   120.5000 0.01494010    1.32050270e+01
   121.0000 0.01500209    1.32495479e+01
   121.5000 0.01506408    1.32952522e+01
   122.0000 0.01512607    1.33422036e+01
   122.5000 0.01518806    1.33904556e+01
   123.0000 0.01525006    1.34400517e+01
   123.5000 0.01531205    1.34910271e+01
   124.0000 0.01537404    1.35434109e+01
   124.5000 0.01543603    1.35972285e+01
   125.0000 0.01549802    1.36525035e+01
   125.5000 0.01556002    1.37092593e+01
   126.0000 0.01562201    1.37675198e+01
   126.5000 0.01568400    1.38273103e+01
   127.0000 0.01574599    1.38886578e+01
   127.5000 0.01580798    1.39515913e+01
   128.0000 0.01586998    1.40161420e+01
   128.5000 0.01593197    1.40823431e+01
   129.0000 0.01599396    1.41502305e+01
   129.5000 0.01605595    1.42198421e+01
   130.0000 0.01611795    1.42912185e+01
   130.5000 0.01617994    1.43644025e+01
   131.0000 0.01624193    1.44394398e+01
   131.5000 0.01630392    1.45163783e+01
   132.0000 0.01636591    1.45952689e+01
   132.5000 0.01642791    1.46761652e+01
   133.0000 0.01648990    1.47591236e+01
   133.5000 0.01655189    1.48442036e+01
   134.0000 0.01661388    1.49314679e+01
   134.5000 0.01667587    1.50209823e+01
   135.0000 0.01673787    1.51128164e+01
   135.5000 0.01679986    1.52070431e+01
   136.0000 0.01686185    1.53037393e+01
   136.5000 0.01692384    1.54029858e+01
   137.0000 0.01698583    1.55048677e+01
   137.5000 0.01704783    1.56094747e+01
   138.0000 0.01710982    1.57169010e+01
   138.5000 0.01717181    1.58272461e+01
   139.0000 0.01723380    1.59406145e+01
   139.5000 0.01729580    1.60571167e+01
   140.0000 0.01735779    1.61768688e+01
   140.5000 0.01741978    1.62999937e+01
   141.0000 0.01748177    1.64266207e+01
   141.5000 0.01754376    1.65568864e+01
   142.0000 0.01760576    1.66909353e+01
   142.5000 0.01766775    1.68289199e+01
   143.0000 0.01772974    1.69710013e+01
   143.5000 0.01779173    1.71173503e+01
   144.0000 0.01785372    1.72681473e+01
   144.5000 0.01791572    1.74235838e+01
   145.0000 0.01797771    1.75838623e+01
   145.5000 0.01803970    1.77491979e+01
   146.0000 0.01810169    1.79198187e+01
   146.5000 0.01816368    1.80959671e+01
   147.0000 0.01822568    1.82779005e+01
   147.5000 0.01828767    1.84658927e+01
   148.0000 0.01834966    1.86602351e+01
   148.5000 0.01841165    1.88612383e+01
   149.0000 0.01847364    1.90692331e+01
   149.5000 0.01853564    1.92845726e+01
   150.0000 0.01859763    1.95076337e+01
   150.5000 0.01865962    1.97388194e+01
   151.0000 0.01872161    1.99785605e+01
   151.5000 0.01878361    2.02273186e+01
   152.0000 0.01884560    2.04855880e+01
   152.5000 0.01890759    2.07538993e+01
   153.0000 0.01896958    2.10328220e+01
   153.5000 0.01903157    2.13229685e+01
   154.0000 0.01909357    2.16249975e+01
   154.5000 0.01915556    2.19396187e+01
   155.0000 0.01921755    2.22675977e+01
   155.5000 0.01927954    2.26097607e+01
   156.0000 0.01934153    2.29670010e+01
   156.5000 0.01940353    2.33402855e+01
   157.0000 0.01946552    2.37306616e+01
   157.5000 0.01952751    2.41392662e+01
   158.0000 0.01958950    2.45673342e+01
   158.5000 0.01965149    2.50162092e+01
   159.0000 0.01971349    2.54873551e+01
   159.5000 0.01977548    2.59823688e+01
   160.0000 0.01983747    2.65029955e+01
   160.5000 0.01989946    2.70511447e+01
   161.0000 0.01996146    2.76289097e+01
   161.5000 0.02002345    2.82385882e+01
   162.0000 0.02008544    2.88827070e+01
   162.5000 0.02014743    2.95640493e+01
   163.0000 0.02020942    3.02856865e+01
   163.5000 0.02027142    3.10510136e+01
   164.0000 0.02033341    3.18637908e+01
   164.5000 0.02039540    3.27281902e+01
   165.0000 0.02045739    3.36488506e+01
   165.5000 0.02051938    3.46309393e+01
   166.0000 0.02058138    3.56802250e+01
   166.5000 0.02064337    3.68031606e+01
   167.0000 0.02070536    3.80069801e+01
   167.5000 0.02076735    3.92998113e+01
   168.0000 0.02082934    4.06908057e+01
   168.5000 0.02089134    4.21902916e+01
   169.0000 0.02095333    4.38099512e+01
   169.5000 0.02101532    4.55630287e+01
   170.0000 0.02107731    4.74645730e+01
   170.5000 0.02113931    4.95317221e+01
   171.0000 0.02120130    5.17840361e+01
   171.5000 0.02126329    5.42438856e+01
   172.0000 0.02132528    5.69369065e+01
   172.5000 0.02138727    5.98925276e+01
   173.0000 0.02144927    6.31445822e+01
   173.5000 0.02151126    6.67320094e+01
   174.0000 0.02157325    7.06996505e+01
   174.5000 0.02163524    7.50991358e+01
   175.0000 0.02169723    7.99898456e+01
   175.5000 0.02175923    8.54399048e+01
   176.0000 0.02182122    9.15271332e+01
   176.5000 0.02188321    9.83398096e+01
   177.0000 0.02194520    1.05977008e+02
   177.5000 0.02200719    1.14548117e+02
   178.0000 0.02206919    1.24170911e+02
   178.5000 0.02213118    1.34967246e+02
   179.0000 0.02219317    1.47054988e+02
   179.5000 0.02225516    1.60534295e+02
   180.0000 0.02231715    1.75465893e+02
   180.5000 0.02237915    1.91838872e+02
   181.0000 0.02244114    2.09526387e+02
   181.5000 0.02250313    2.28230568e+02
   182.0000 0.02256512    2.47424086e+02
   182.5000 0.02262712    2.66305852e+02
   183.0000 0.02268911    2.83799738e+02
   183.5000 0.02275110    2.98630560e+02
   184.0000 0.02281309    3.09498208e+02
   184.5000 0.02287508    3.15330728e+02
   185.0000 0.02293708    3.15542600e+02
   185.5000 0.02299907    3.10193782e+02
   186.0000 0.02306106    2.99974943e+02
   186.5000 0.02312305    2.86026138e+02
   187.0000 0.02318504    2.69672711e+02
   187.5000 0.02324704    2.52181400e+02
   188.0000 0.02330903    2.34602001e+02
   188.5000 0.02337102    2.17705701e+02
   189.0000 0.02343301    2.01995194e+02
   189.5000 0.02349500    1.87752178e+02
   190.0000 0.02355700    1.75094824e+02
   190.5000 0.02361899    1.64029324e+02
   191.0000 0.02368098    1.54489048e+02
   191.5000 0.02374297    1.46360479e+02
   192.0000 0.02380497    1.39497854e+02
   192.5000 0.02386696    1.33729681e+02
   193.0000 0.02392895    1.28861093e+02
   193.5000 0.02399094    1.24676731e+02
   194.0000 0.02405293    1.20949043e+02
   194.5000 0.02411493    1.17455461e+02
   195.0000 0.02417692    1.14003738e+02
   195.5000 0.02423891    1.10458845e+02
   196.0000 0.02430090    1.06760800e+02
   196.5000 0.02436289    1.02924867e+02
   197.0000 0.02442489    9.90236321e+01
   197.5000 0.02448688    9.51589453e+01
   198.0000 0.02454887    9.14347086e+01
   198.5000 0.02461086    8.79381452e+01
   199.0000 0.02467285    8.47314588e+01
   199.5000 0.02473485    8.18516225e+01
   200.0000 0.02479684    7.93146950e+01
   200.5000 0.02485883    7.71216393e+01
   201.0000 0.02492082    7.52638281e+01
   201.5000 0.02498282    7.37274630e+01
   202.0000 0.02504481    7.24967745e+01
   202.5000 0.02510680    7.15561725e+01
   203.0000 0.02516879    7.08916032e+01
   203.5000 0.02523078    7.04913588e+01
   204.0000 0.02529278    7.03465353e+01
   204.5000 0.02535477    7.04512830e+01
   205.0000 0.02541676    7.08029490e+01
   205.5000 0.02547875    7.14021784e+01
   206.0000 0.02554074    7.22530198e+01
   206.5000 0.02560274    7.33630644e+01
   207.0000 0.02566473    7.47436388e+01
   207.5000 0.02572672    7.64100669e+01
   208.0000 0.02578871    7.83820133e+01
   208.5000 0.02585070    8.06839161e+01
   209.0000 0.02591270    8.33455179e+01
   209.5000 0.02597469    8.64024984e+01
   210.0000 0.02603668    8.98972066e+01
   210.5000 0.02609867    9.38794802e+01
   211.0000 0.02616066    9.84075221e+01
   211.5000 0.02622266    1.03548771e+02
   212.0000 0.02628465    1.09380654e+02
   212.5000 0.02634664    1.15991029e+02
   213.0000 0.02640863    1.23477996e+02
   213.5000 0.02647063    1.31948569e+02
   214.0000 0.02653262    1.41515429e+02
   214.5000 0.02659461    1.52290596e+02
   215.0000 0.02665660    1.64374413e+02
   215.5000 0.02671859    1.77837733e+02
   216.0000 0.02678059    1.92694981e+02
   216.5000 0.02684258    2.08866169e+02
   217.0000 0.02690457    2.26127986e+02
   217.5000 0.02696656    2.44058806e+02
   218.0000 0.02702855    2.61990756e+02
   218.5000 0.02709055    2.78992787e+02
   219.0000 0.02715254    2.93916417e+02
   219.5000 0.02721453    3.05529845e+02
   220.0000 0.02727652    3.12736096e+02
   220.5000 0.02733851    3.14821150e+02
   221.0000 0.02740051    3.11638218e+02
   221.5000 0.02746250    3.03643761e+02
   222.0000 0.02752449    2.91767272e+02
   222.5000 0.02758648    2.77176809e+02
   223.0000 0.02764848    2.61039017e+02
   223.5000 0.02771047    2.44349697e+02
   224.0000 0.02777246    2.27859310e+02
   224.5000 0.02783445    2.12075220e+02
   225.0000 0.02789644    1.97305448e+02
   225.5000 0.02795844    1.83712836e+02
   226.0000 0.02802043    1.71361720e+02
   226.5000 0.02808242    1.60251780e+02
   227.0000 0.02814441    1.50340933e+02
   227.5000 0.02820640    1.41560991e+02
   228.0000 0.02826840    1.33828952e+02
   228.5000 0.02833039    1.27055364e+02
   229.0000 0.02839238    1.21150409e+02
   229.5000 0.02845437    1.16028041e+02
   230.0000 0.02851636    1.11608545e+02
   230.5000 0.02857836    1.07819872e+02
   231.0000 0.02864035    1.04598119e+02
   231.5000 0.02870234    1.01887445e+02
   232.0000 0.02876433    9.96396634e+01
   232.5000 0.02882633    9.78136709e+01
   233.0000 0.02888832    9.63748177e+01
   233.5000 0.02895031    9.52942915e+01
   234.0000 0.02901230    9.45485484e+01
   234.5000 0.02907429    9.41188148e+01
   235.0000 0.02913629    9.39906666e+01
   235.5000 0.02919828    9.41536899e+01
   236.0000 0.02926027    9.46012206e+01
   236.5000 0.02932226    9.53301609e+01
   237.0000 0.02938425    9.63408704e+01
   237.5000 0.02944625    9.76371279e+01
   238.0000 0.02950824    9.92261620e+01
   238.5000 0.02957023    1.01118749e+02
   239.0000 0.02963222    1.03329373e+02
   239.5000 0.02969421    1.05876445e+02
   240.0000 0.02975621    1.08782572e+02
   240.5000 0.02981820    1.12074865e+02
   241.0000 0.02988019    1.15785244e+02
   241.5000 0.02994218    1.19950729e+02
   242.0000 0.03000417    1.24613612e+02
   242.5000 0.03006617    1.29821449e+02
   243.0000 0.03012816    1.35626725e+02
   243.5000 0.03019015    1.42086059e+02
   244.0000 0.03025214    1.49258823e+02
   244.5000 0.03031414    1.57205189e+02
   245.0000 0.03037613    1.65983894e+02
   245.5000 0.03043812    1.75650550e+02
   246.0000 0.03050011    1.86257941e+02
   246.5000 0.03056210    1.97860139e+02
   247.0000 0.03062410    2.10521693e+02
   247.5000 0.03068609    2.24330869e+02
   248.0000 0.03074808    2.39412313e+02
   248.5000 0.03081007    2.55931546e+02
   249.0000 0.03087206    2.74083786e+02
   249.5000 0.03093406    2.94063306e+02
   250.0000 0.03099605    3.16014117e+02
   250.5000 0.03105804    3.39965120e+02
   251.0000 0.03112003    3.65753279e+02
   251.5000 0.03118202    3.92940317e+02
   252.0000 0.03124402    4.20736118e+02
   252.5000 0.03130601    4.47955943e+02
   253.0000 0.03136800    4.73053214e+02
   253.5000 0.03142999    4.94270885e+02
   254.0000 0.03149199    5.09924839e+02
   254.5000 0.03155398    5.18768005e+02
   255.0000 0.03161597    5.20313848e+02
   255.5000 0.03167796    5.14980615e+02
   256.0000 0.03173995    5.03987925e+02
   256.5000 0.03180195    4.89056560e+02
   257.0000 0.03186394    4.72045020e+02
   257.5000 0.03192593    4.54652198e+02
   258.0000 0.03198792    4.38249716e+02
   258.5000 0.03204991    4.23838407e+02
   259.0000 0.03211191    4.12087223e+02
   259.5000 0.03217390    4.03409614e+02
   260.0000 0.03223589    3.98045632e+02
   260.5000 0.03229788    3.96133426e+02
   261.0000 0.03235987    3.97764783e+02
   261.5000 0.03242187    4.03025356e+02
   262.0000 0.03248386    4.12022446e+02
   262.5000 0.03254585    4.24903444e+02
   263.0000 0.03260784    4.41867332e+02
   263.5000 0.03266984    4.63170544e+02
   264.0000 0.03273183    4.89127276e+02
   264.5000 0.03279382    5.20102934e+02
   265.0000 0.03285581    5.56497777e+02
   265.5000 0.03291780    5.98715868e+02
   266.0000 0.03297980    6.47112202e+02
   266.5000 0.03304179    7.01908694e+02
   267.0000 0.03310378    7.63068726e+02
   267.5000 0.03316577    8.30122386e+02
   268.0000 0.03322776    9.01944434e+02
   268.5000 0.03328976    9.76509531e+02
   269.0000 0.03335175    1.05068771e+03
   269.5000 0.03341374    1.12019114e+03
   270.0000 0.03347573    1.17981398e+03
   270.5000 0.03353772    1.22407160e+03
   271.0000 0.03359972    1.24820099e+03
   271.5000 0.03366171    1.24925999e+03
   272.0000 0.03372370    1.22690095e+03
   272.5000 0.03378569    1.18346297e+03
   273.0000 0.03384768    1.12333733e+03
   273.5000 0.03390968    1.05190503e+03
   274.0000 0.03397167    9.74479615e+02
   274.5000 0.03403366    8.95569365e+02
   275.0000 0.03409565    8.18547089e+02
   275.5000 0.03415765    7.45645412e+02
   276.0000 0.03421964    6.78136020e+02
   276.5000 0.03428163    6.16571339e+02
   277.0000 0.03434362    5.61014391e+02
   277.5000 0.03440561    5.11224507e+02
   278.0000 0.03446761    4.66792816e+02
   278.5000 0.03452960    4.27233899e+02
   279.0000 0.03459159    3.92043826e+02
   279.5000 0.03465358    3.60734413e+02
   280.0000 0.03471557    3.32851613e+02
   280.5000 0.03477757    3.07983828e+02
   281.0000 0.03483956    2.85764110e+02
   281.5000 0.03490155    2.65868879e+02
   282.0000 0.03496354    2.48014823e+02
   282.5000 0.03502553    2.31954982e+02
   283.0000 0.03508753    2.17474637e+02
   283.5000 0.03514952    2.04387324e+02
   284.0000 0.03521151    1.92531152e+02
   284.5000 0.03527350    1.81765490e+02
   285.0000 0.03533550    1.71968051e+02
   285.5000 0.03539749    1.63032347e+02
   286.0000 0.03545948    1.54865490e+02
   286.5000 0.03552147    1.47386303e+02
   287.0000 0.03558346    1.40523698e+02
   287.5000 0.03564546    1.34215295e+02
   288.0000 0.03570745    1.28406231e+02
   288.5000 0.03576944    1.23048160e+02
   289.0000 0.03583143    1.18098376e+02
   289.5000 0.03589342    1.13519085e+02
   290.0000 0.03595542    1.09276763e+02
   290.5000 0.03601741    1.05341619e+02
   291.0000 0.03607940    1.01687127e+02
   291.5000 0.03614139    9.82896206e+01
   292.0000 0.03620338    9.51279542e+01
   292.5000 0.03626538    9.21831982e+01
   293.0000 0.03632737    8.94383837e+01
   293.5000 0.03638936    8.68782775e+01
   294.0000 0.03645135    8.44891885e+01
   294.5000 0.03651335    8.22587985e+01
   295.0000 0.03657534    8.01760153e+01
   295.5000 0.03663733    7.82308451e+01
   296.0000 0.03669932    7.64142807e+01
   296.5000 0.03676131    7.47182041e+01
   297.0000 0.03682331    7.31353020e+01
   297.5000 0.03688530    7.16589918e+01
   298.0000 0.03694729    7.02833574e+01
   298.5000 0.03700928    6.90030930e+01
   299.0000 0.03707127    6.78134555e+01
   299.5000 0.03713327    6.67102227e+01
   300.0000 0.03719526    6.56896582e+01
   300.5000 0.03725725    6.47484819e+01
   301.0000 0.03731924    6.38838454e+01
   301.5000 0.03738123    6.30933129e+01
   302.0000 0.03744323    6.23748459e+01
   302.5000 0.03750522    6.17267934e+01
   303.0000 0.03756721    6.11478861e+01
   303.5000 0.03762920    6.06372349e+01
   304.0000 0.03769119    6.01943346e+01
   304.5000 0.03775319    5.98190719e+01
   305.0000 0.03781518    5.95117389e+01
   305.5000 0.03787717    5.92730524e+01
   306.0000 0.03793916    5.91041788e+01
   306.5000 0.03800116    5.90067665e+01
   307.0000 0.03806315    5.89829858e+01
   307.5000 0.03812514    5.90355778e+01
   308.0000 0.03818713    5.91679132e+01
   308.5000 0.03824912    5.93840634e+01
   309.0000 0.03831112    5.96888848e+01
   309.5000 0.03837311    6.00881193e+01
   310.0000 0.03843510    6.05885133e+01
   310.5000 0.03849709    6.11979585e+01
   311.0000 0.03855908    6.19256576e+01
   311.5000 0.03862108    6.27823202e+01
   312.0000 0.03868307    6.37803918e+01
   312.5000 0.03874506    6.49343228e+01
   313.0000 0.03880705    6.62608804e+01
   313.5000 0.03886904    6.77795103e+01
   314.0000 0.03893104    6.95127495e+01
   314.5000 0.03899303    7.14866924e+01
   315.0000 0.03905502    7.37315037e+01
   315.5000 0.03911701    7.62819641e+01
   316.0000 0.03917901    7.91780170e+01
   316.5000 0.03924100    8.24652573e+01
   317.0000 0.03930299    8.61952593e+01
   317.5000 0.03936498    9.04255733e+01
   318.0000 0.03942697    9.52191138e+01
   318.5000 0.03948897    1.00642515e+02
   319.0000 0.03955096    1.06762814e+02
   319.5000 0.03961295    1.13641561e+02
   320.0000 0.03967494    1.21325161e+02
   320.5000 0.03973693    1.29830052e+02
   321.0000 0.03979893    1.39121481e+02
   321.5000 0.03986092    1.49085550e+02
   322.0000 0.03992291    1.59496667e+02
   322.5000 0.03998490    1.69986999e+02
   323.0000 0.04004689    1.80030860e+02
   323.5000 0.04010889    1.88962451e+02
   324.0000 0.04017088    1.96044254e+02
   324.5000 0.04023287    2.00588819e+02
   325.0000 0.04029486    2.02108502e+02
   325.5000 0.04035686    2.00440422e+02
   326.0000 0.04041885    1.95791478e+02
   326.5000 0.04048084    1.88681655e+02
   327.0000 0.04054283    1.79812891e+02
   327.5000 0.04060482    1.69920312e+02
   328.0000 0.04066682    1.59656151e+02
   328.5000 0.04072881    1.49528014e+02
   329.0000 0.04079080    1.39886190e+02
   329.5000 0.04085279    1.30941955e+02
   330.0000 0.04091478    1.22798910e+02
   330.5000 0.04097678    1.15485234e+02
   331.0000 0.04103877    1.08980871e+02
   331.5000 0.04110076    1.03237959e+02
   332.0000 0.04116275    9.81949597e+01
   332.5000 0.04122474    9.37858038e+01
   333.0000 0.04128674    8.99454235e+01
   333.5000 0.04134873    8.66128380e+01
   334.0000 0.04141072    8.37326572e+01
   334.5000 0.04147271    8.12556149e+01
   335.0000 0.04153470    7.91385353e+01
   335.5000 0.04159670    7.73439959e+01
   336.0000 0.04165869    7.58398461e+01
   336.5000 0.04172068    7.45986808e+01
   337.0000 0.04178267    7.35973215e+01
   337.5000 0.04184467    7.28163371e+01
   338.0000 0.04190666    7.22396167e+01
   338.5000 0.04196865    7.18539995e+01
   339.0000 0.04203064    7.16489627e+01
   339.5000 0.04209263    7.16163628e+01
   340.0000 0.04215463    7.17502292e+01
   340.5000 0.04221662    7.20466039e+01
   341.0000 0.04227861    7.25034252e+01
   341.5000 0.04234060    7.31204524e+01
   342.0000 0.04240259    7.38992298e+01
   342.5000 0.04246459    7.48430874e+01
   343.0000 0.04252658    7.59571800e+01
   343.5000 0.04258857    7.72485632e+01
   344.0000 0.04265056    7.87263094e+01
   344.5000 0.04271255    8.04016630e+01
   345.0000 0.04277455    8.22882394e+01
   345.5000 0.04283654    8.44022669e+01
   346.0000 0.04289853    8.67628739e+01
   346.5000 0.04296052    8.93924186e+01
   347.0000 0.04302252    9.23168547e+01
   347.5000 0.04308451    9.55661181e+01
   348.0000 0.04314650    9.91745059e+01
   348.5000 0.04320849    1.03180997e+02
   349.0000 0.04327048    1.07629424e+02
   349.5000 0.04333248    1.12568362e+02
   350.0000 0.04339447    1.18050506e+02
   350.5000 0.04345646    1.24131201e+02
   351.0000 0.04351845    1.30865661e+02
   351.5000 0.04358044    1.38304217e+02
   352.0000 0.04364244    1.46484848e+02
   352.5000 0.04370443    1.55422260e+02
   353.0000 0.04376642    1.65093245e+02
   353.5000 0.04382841    1.75419259e+02
   354.0000 0.04389040    1.86249518e+02
   354.5000 0.04395240    1.97351347e+02
   355.0000 0.04401439    2.08417824e+02
   355.5000 0.04407638    2.19102907e+02
   356.0000 0.04413837    2.29087279e+02
   356.5000 0.04420037    2.38163140e+02
   357.0000 0.04426236    2.46310027e+02
   357.5000 0.04432435    2.53729722e+02
   358.0000 0.04438634    2.60824482e+02
   358.5000 0.04444833    2.68130239e+02
   359.0000 0.04451033    2.76235428e+02
   359.5000 0.04457232    2.85715063e+02
   360.0000 0.04463431    2.97094406e+02
   360.5000 0.04469630    3.10840472e+02
   361.0000 0.04475829    3.27370969e+02
   361.5000 0.04482029    3.47069040e+02
   362.0000 0.04488228    3.70294496e+02
   362.5000 0.04494427    3.97384760e+02
   363.0000 0.04500626    4.28639992e+02
   363.5000 0.04506825    4.64286746e+02
   364.0000 0.04513025    5.04413825e+02
   364.5000 0.04519224    5.48874307e+02
   365.0000 0.04525423    5.97151237e+02
   365.5000 0.04531622    6.48194771e+02
   366.0000 0.04537821    7.00259039e+02
   366.5000 0.04544021    7.50797764e+02
   367.0000 0.04550220    7.96508776e+02
   367.5000 0.04556419    8.33622437e+02
   368.0000 0.04562618    8.58471468e+02
   368.5000 0.04568818    8.68246990e+02
   369.0000 0.04575017    8.61694215e+02
   369.5000 0.04581216    8.39451483e+02
   370.0000 0.04587415    8.03870284e+02
   370.5000 0.04593614    7.58403589e+02
   371.0000 0.04599814    7.06836177e+02
   371.5000 0.04606013    6.52636552e+02
   372.0000 0.04612212    5.98577125e+02
   372.5000 0.04618411    5.46620466e+02
   373.0000 0.04624610    4.97986780e+02
   373.5000 0.04630810    4.53306456e+02
   374.0000 0.04637009    4.12788035e+02
   374.5000 0.04643208    3.76364719e+02
   375.0000 0.04649407    3.43806777e+02
   375.5000 0.04655606    3.14800587e+02
   376.0000 0.04661806    2.89000477e+02
   376.5000 0.04668005    2.66060558e+02
   377.0000 0.04674204    2.45652798e+02
   377.5000 0.04680403    2.27476128e+02
   378.0000 0.04686603    2.11259967e+02
   378.5000 0.04692802    1.96764457e+02
   379.0000 0.04699001    1.83778884e+02
   379.5000 0.04705200    1.72119200e+02
   380.0000 0.04711399    1.61625208e+02
   380.5000 0.04717599    1.52157740e+02
   381.0000 0.04723798    1.43595978e+02
   381.5000 0.04729997    1.35835017e+02
   382.0000 0.04736196    1.28783703e+02
   382.5000 0.04742395    1.22362729e+02
   383.0000 0.04748595    1.16502986e+02
   383.5000 0.04754794    1.11144146e+02
   384.0000 0.04760993    1.06233437e+02
   384.5000 0.04767192    1.01724603e+02
   385.0000 0.04773391    9.75770084e+01
   385.5000 0.04779591    9.37548797e+01
   386.0000 0.04785790    9.02266499e+01
   386.5000 0.04791989    8.69644033e+01
   387.0000 0.04798188    8.39433983e+01
   387.5000 0.04804388    8.11416588e+01
   388.0000 0.04810587    7.85396230e+01
   388.5000 0.04816786    7.61198416e+01
   389.0000 0.04822985    7.38667176e+01
   389.5000 0.04829184    7.17662822e+01
   390.0000 0.04835384    6.98060002e+01
   390.5000 0.04841583    6.79746017e+01
   391.0000 0.04847782    6.62619362e+01
   391.5000 0.04853981    6.46588451e+01
   392.0000 0.04860180    6.31570509e+01
   392.5000 0.04866380    6.17490602e+01
   393.0000 0.04872579    6.04280788e+01
   393.5000 0.04878778    5.91879373e+01
   394.0000 0.04884977    5.80230258e+01
   394.5000 0.04891176    5.69282361e+01
   395.0000 0.04897376    5.58989109e+01
   395.5000 0.04903575    5.49307991e+01
   396.0000 0.04909774    5.40200160e+01
   396.5000 0.04915973    5.31630079e+01
   397.0000 0.04922172    5.23565212e+01
   397.5000 0.04928372    5.15975742e+01
   398.0000 0.04934571    5.08834327e+01
   398.5000 0.04940770    5.02115878e+01
   399.0000 0.04946969    4.95797363e+01
   399.5000 0.04953169    4.89857628e+01
   400.0000 0.04959368    4.84277248e+01
   400.5000 0.04965567    4.79038377e+01
   401.0000 0.04971766    4.74124628e+01
   401.5000 0.04977965    4.69520963e+01
   402.0000 0.04984165    4.65213585e+01
   402.5000 0.04990364    4.61189856e+01
   403.0000 0.04996563    4.57438211e+01
   403.5000 0.05002762    4.53948093e+01
   404.0000 0.05008961    4.50709882e+01
   404.5000 0.05015161    4.47714847e+01
   405.0000 0.05021360    4.44955091e+01
   405.5000 0.05027559    4.42423512e+01
   406.0000 0.05033758    4.40113764e+01
   406.5000 0.05039957    4.38020224e+01
   407.0000 0.05046157    4.36137970e+01
   407.5000 0.05052356    4.34462757e+01
   408.0000 0.05058555    4.32991001e+01
   408.5000 0.05064754    4.31719769e+01
   409.0000 0.05070954    4.30646770e+01
   409.5000 0.05077153    4.29770357e+01
   410.0000 0.05083352    4.29089530e+01
   410.5000 0.05089551    4.28603942e+01
   411.0000 0.05095750    4.28313919e+01
   411.5000 0.05101950    4.28220476e+01
   412.0000 0.05108149    4.28325348e+01
   412.5000 0.05114348    4.28631023e+01
   413.0000 0.05120547    4.29140784e+01
   413.5000 0.05126746    4.29858765e+01
   414.0000 0.05132946    4.30790008e+01
   414.5000 0.05139145    4.31940539e+01
   415.0000 0.05145344    4.33317454e+01
   415.5000 0.05151543    4.34929023e+01
   416.0000 0.05157742    4.36784803e+01
   416.5000 0.05163942    4.38895782e+01
   417.0000 0.05170141    4.41274535e+01
   417.5000 0.05176340    4.43935417e+01
   418.0000 0.05182539    4.46894770e+01
   418.5000 0.05188739    4.50171179e+01
   419.0000 0.05194938    4.53785751e+01
   419.5000 0.05201137    4.57762441e+01
   420.0000 0.05207336    4.62128417e+01
   420.5000 0.05213535    4.66914455e+01
   421.0000 0.05219735    4.72155377e+01
   421.5000 0.05225934    4.77890494e+01
   422.0000 0.05232133    4.84164037e+01
   422.5000 0.05238332    4.91025519e+01
   423.0000 0.05244531    4.98529939e+01
   423.5000 0.05250731    5.06737721e+01
   424.0000 0.05256930    5.15714181e+01
   424.5000 0.05263129    5.25528334e+01
   425.0000 0.05269328    5.36250792e+01
   425.5000 0.05275527    5.47950637e+01
   426.0000 0.05281727    5.60691429e+01
   426.5000 0.05287926    5.74527173e+01
   427.0000 0.05294125    5.89499992e+01
   427.5000 0.05300324    6.05642351e+01
   428.0000 0.05306523    6.22986901e+01
   428.5000 0.05312723    6.41585261e+01
   429.0000 0.05318922    6.61532624e+01
   429.5000 0.05325121    6.82989380e+01
   430.0000 0.05331320    7.06188032e+01
   430.5000 0.05337520    7.31416682e+01
   431.0000 0.05343719    7.58977829e+01
   431.5000 0.05349918    7.89127554e+01
   432.0000 0.05356117    8.22001102e+01
   432.5000 0.05362316    8.57528365e+01
   433.0000 0.05368516    8.95342359e+01
   433.5000 0.05374715    9.34690779e+01
   434.0000 0.05380914    9.74375997e+01
   434.5000 0.05387113    1.01276744e+02
   435.0000 0.05393312    1.04793807e+02
   435.5000 0.05399512    1.07795375e+02
   436.0000 0.05405711    1.10127877e+02
   436.5000 0.05411910    1.11717662e+02
   437.0000 0.05418109    1.12594271e+02
   437.5000 0.05424308    1.12886103e+02
   438.0000 0.05430508    1.12790761e+02
   438.5000 0.05436707    1.12533805e+02
   439.0000 0.05442906    1.12331838e+02
   439.5000 0.05449105    1.12369457e+02
   440.0000 0.05455305    1.12791248e+02
   440.5000 0.05461504    1.13704699e+02
   441.0000 0.05467703    1.15188707e+02
   441.5000 0.05473902    1.17303591e+02
   442.0000 0.05480101    1.20100302e+02
   442.5000 0.05486301    1.23627979e+02
   443.0000 0.05492500    1.27939782e+02
   443.5000 0.05498699    1.33097305e+02
   444.0000 0.05504898    1.39173928e+02
   444.5000 0.05511097    1.46257376e+02
   445.0000 0.05517297    1.54451609e+02
   445.5000 0.05523496    1.63877998e+02
   446.0000 0.05529695    1.74675468e+02
   446.5000 0.05535894    1.86999003e+02
   447.0000 0.05542093    2.01015488e+02
   447.5000 0.05548293    2.16895277e+02
   448.0000 0.05554492    2.34797182e+02
   448.5000 0.05560691    2.54843804e+02
   449.0000 0.05566890    2.77083518e+02
   449.5000 0.05573090    3.01435693e+02
   450.0000 0.05579289    3.27617919e+02
   450.5000 0.05585488    3.55060004e+02
   451.0000 0.05591687    3.82820863e+02
   451.5000 0.05597886    4.09540909e+02
   452.0000 0.05604086    4.33477957e+02
   452.5000 0.05610285    4.52674328e+02
   453.0000 0.05616484    4.65268175e+02
   453.5000 0.05622683    4.69889755e+02
   454.0000 0.05628882    4.66007618e+02
   454.5000 0.05635082    4.54074302e+02
   455.0000 0.05641281    4.35401314e+02
   455.5000 0.05647480    4.11823850e+02
   456.0000 0.05653679    3.85302765e+02
   456.5000 0.05659878    3.57603076e+02
   457.0000 0.05666078    3.30114997e+02
   457.5000 0.05672277    3.03809033e+02
   458.0000 0.05678476    2.79278749e+02
   458.5000 0.05684675    2.56822399e+02
   459.0000 0.05690874    2.36529399e+02
   459.5000 0.05697074    2.18354335e+02
   460.0000 0.05703273    2.02173080e+02
   460.5000 0.05709472    1.87821898e+02
   461.0000 0.05715671    1.75122914e+02
   461.5000 0.05721871    1.63899616e+02
   462.0000 0.05728070    1.53985582e+02
   462.5000 0.05734269    1.45228797e+02
   463.0000 0.05740468    1.37493245e+02
   463.5000 0.05746667    1.30658916e+02
   464.0000 0.05752867    1.24620940e+02
   464.5000 0.05759066    1.19288295e+02
   465.0000 0.05765265    1.14582388e+02
   465.5000 0.05771464    1.10435622e+02
   466.0000 0.05777663    1.06790076e+02
   466.5000 0.05783863    1.03596305e+02
   467.0000 0.05790062    1.00812287e+02
   467.5000 0.05796261    9.84025239e+01
   468.0000 0.05802460    9.63372744e+01
   468.5000 0.05808659    9.45919146e+01
   469.0000 0.05814859    9.31464183e+01
   469.5000 0.05821058    9.19849409e+01
   470.0000 0.05827257    9.10954999e+01
   470.5000 0.05833456    9.04697435e+01
   471.0000 0.05839656    9.01028024e+01
   471.5000 0.05845855    8.99932203e+01
   472.0000 0.05852054    9.01429615e+01
   472.5000 0.05858253    9.05574950e+01
   473.0000 0.05864452    9.12459570e+01
   473.5000 0.05870652    9.22213932e+01
   474.0000 0.05876851    9.35010845e+01
   474.5000 0.05883050    9.51069570e+01
   475.0000 0.05889249    9.70660771e+01
   475.5000 0.05895448    9.94112244e+01
   476.0000 0.05901648    1.02181527e+02
   476.5000 0.05907847    1.05423123e+02
   477.0000 0.05914046    1.09189784e+02
   477.5000 0.05920245    1.13543387e+02
   478.0000 0.05926444    1.18554037e+02
   478.5000 0.05932644    1.24299536e+02
   479.0000 0.05938843    1.30863696e+02
   479.5000 0.05945042    1.38332769e+02
   480.0000 0.05951241    1.46788916e+02
   480.5000 0.05957441    1.56299268e+02
   481.0000 0.05963640    1.66898805e+02
   481.5000 0.05969839    1.78565268e+02
   482.0000 0.05976038    1.91185141e+02
   482.5000 0.05982237    2.04512191e+02
   483.0000 0.05988437    2.18125048e+02
   483.5000 0.05994636    2.31398024e+02
   484.0000 0.06000835    2.43507561e+02
   484.5000 0.06007034    2.53499067e+02
   485.0000 0.06013233    2.60426115e+02
   485.5000 0.06019433    2.63541643e+02
   486.0000 0.06025632    2.62481269e+02
   486.5000 0.06031831    2.57362101e+02
   487.0000 0.06038030    2.48750079e+02
   487.5000 0.06044229    2.37511752e+02
   488.0000 0.06050429    2.24617700e+02
   488.5000 0.06056628    2.10971112e+02
   489.0000 0.06062827    1.97303185e+02
   489.5000 0.06069026    1.84137994e+02
   490.0000 0.06075225    1.71806330e+02
   490.5000 0.06081425    1.60483545e+02
   491.0000 0.06087624    1.50232741e+02
   491.5000 0.06093823    1.41043077e+02
   492.0000 0.06100022    1.32859468e+02
   492.5000 0.06106222    1.25603627e+02
   493.0000 0.06112421    1.19187966e+02
   493.5000 0.06118620    1.13524189e+02
   494.0000 0.06124819    1.08528217e+02
   494.5000 0.06131018    1.04122713e+02
   495.0000 0.06137218    1.00238104e+02
   495.5000 0.06143417    9.68127054e+01
   496.0000 0.06149616    9.37923627e+01
   496.5000 0.06155815    9.11298321e+01
   497.0000 0.06162014    8.87840706e+01
   497.5000 0.06168214    8.67195141e+01
   498.0000 0.06174413    8.49053915e+01
   498.5000 0.06180612    8.33150988e+01
   499.0000 0.06186811    8.19256420e+01
   499.5000 0.06193010    8.07171481e+01
   500.0000 0.06199210    7.96724424e+01
   500.5000 0.06205409    7.87766836e+01
   501.0000 0.06211608    7.80170532e+01
   501.5000 0.06217807    7.73824896e+01
   502.0000 0.06224007    7.68634631e+01
   502.5000 0.06230206    7.64517849e+01
   503.0000 0.06236405    7.61404463e+01
   503.5000 0.06242604    7.59234831e+01
   504.0000 0.06248803    7.57958617e+01
   504.5000 0.06255003    7.57533851e+01
   505.0000 0.06261202    7.57926143e+01
   505.5000 0.06267401    7.59108054e+01
   506.0000 0.06273600    7.61058590e+01
   506.5000 0.06279799    7.63762808e+01
   507.0000 0.06285999    7.67211540e+01
   507.5000 0.06292198    7.71401206e+01
   508.0000 0.06298397    7.76333729e+01
   508.5000 0.06304596    7.82016540e+01
   509.0000 0.06310795    7.88462676e+01
   509.5000 0.06316995    7.95690982e+01
   510.0000 0.06323194    8.03726408e+01
   510.5000 0.06329393    8.12600421e+01
   511.0000 0.06335592    8.22351538e+01
   511.5000 0.06341792    8.33025997e+01
   512.0000 0.06347991    8.44678573e+01
   512.5000 0.06354190    8.57373577e+01
   513.0000 0.06360389    8.71186039e+01
   513.5000 0.06366588    8.86203114e+01
   514.0000 0.06372788    9.02525734e+01
   514.5000 0.06378987    9.20270517e+01
   515.0000 0.06385186    9.39571961e+01
   515.5000 0.06391385    9.60584907e+01
   516.0000 0.06397584    9.83487247e+01
   516.5000 0.06403784    1.00848277e+02
   517.0000 0.06409983    1.03580398e+02
   517.5000 0.06416182    1.06571450e+02
   518.0000 0.06422381    1.09851055e+02
   518.5000 0.06428580    1.13452041e+02
   519.0000 0.06434780    1.17410045e+02
   519.5000 0.06440979    1.21762517e+02
   520.0000 0.06447178    1.26546797e+02
   520.5000 0.06453377    1.31796748e+02
   521.0000 0.06459576    1.37537335e+02
   521.5000 0.06465776    1.43776447e+02
   522.0000 0.06471975    1.50493410e+02
   522.5000 0.06478174    1.57624299e+02
   523.0000 0.06484373    1.65045603e+02
   523.5000 0.06490573    1.72560379e+02
   524.0000 0.06496772    1.79894195e+02
   524.5000 0.06502971    1.86710417e+02
   525.0000 0.06509170    1.92652169e+02
   525.5000 0.06515369    1.97408954e+02
   526.0000 0.06521569    2.00790911e+02
   526.5000 0.06527768    2.02782389e+02
   527.0000 0.06533967    2.03550377e+02
   527.5000 0.06540166    2.03403752e+02
   528.0000 0.06546365    2.02722685e+02
   528.5000 0.06552565    2.01887341e+02
   529.0000 0.06558764    2.01227497e+02
   529.5000 0.06564963    2.00999636e+02
   530.0000 0.06571162    2.01386287e+02
   530.5000 0.06577361    2.02508169e+02
   531.0000 0.06583561    2.04440852e+02
   531.5000 0.06589760    2.07230847e+02
   532.0000 0.06595959    2.10908851e+02
   532.5000 0.06602158    2.15499728e+02
   533.0000 0.06608358    2.21029629e+02
   533.5000 0.06614557    2.27530976e+02
   534.0000 0.06620756    2.35045985e+02
   534.5000 0.06626955    2.43629312e+02
   535.0000 0.06633154    2.53350233e+02
   535.5000 0.06639354    2.64294680e+02
   536.0000 0.06645553    2.76567359e+02
   536.5000 0.06651752    2.90294109e+02
   537.0000 0.06657951    3.05624626e+02
   537.5000 0.06664150    3.22735657e+02
   538.0000 0.06670350    3.41834724e+02
   538.5000 0.06676549    3.63164436e+02
   539.0000 0.06682748    3.87007386e+02
   539.5000 0.06688947    4.13691583e+02
   540.0000 0.06695146    4.43596231e+02
   540.5000 0.06701346    4.77157505e+02
   541.0000 0.06707545    5.14873638e+02
   541.5000 0.06713744    5.57308162e+02
   542.0000 0.06719943    6.05089351e+02
   542.5000 0.06726143    6.58902768e+02
   543.0000 0.06732342    7.19472120e+02
   543.5000 0.06738541    7.87521293e+02
   544.0000 0.06744740    8.63707497e+02
   544.5000 0.06750939    9.48512379e+02
   545.0000 0.06757139    1.04207598e+03
   545.5000 0.06763338    1.14396048e+03
   546.0000 0.06769537    1.25284202e+03
   546.5000 0.06775736    1.36615687e+03
   547.0000 0.06781935    1.47977871e+03
   547.5000 0.06788135    1.58787274e+03
   548.0000 0.06794334    1.68312795e+03
   548.5000 0.06800533    1.75754663e+03
   549.0000 0.06806732    1.80379893e+03
   549.5000 0.06812931    1.81684054e+03
   550.0000 0.06819131    1.79521099e+03
   550.5000 0.06825330    1.74143568e+03
   551.0000 0.06831529    1.66133763e+03
   551.5000 0.06837728    1.56258717e+03
   552.0000 0.06843927    1.45310742e+03
   552.5000 0.06850127    1.33985893e+03
   553.0000 0.06856326    1.22821358e+03
   553.5000 0.06862525    1.12184643e+03
   554.0000 0.06868724    1.02294810e+03
   554.5000 0.06874924    9.32567209e+02
   555.0000 0.06881123    8.50956704e+02
   555.5000 0.06887322    7.77863434e+02
   556.0000 0.06893521    7.12744312e+02
   556.5000 0.06899720    6.54915269e+02
   557.0000 0.06905920    6.03647196e+02
   557.5000 0.06912119    5.58223718e+02
   558.0000 0.06918318    5.17973141e+02
   558.5000 0.06924517    4.82283769e+02
   559.0000 0.06930716    4.50609040e+02
   559.5000 0.06936916    4.22466742e+02
   560.0000 0.06943115    3.97435045e+02
   560.5000 0.06949314    3.75147052e+02
   561.0000 0.06955513    3.55284879e+02
   561.5000 0.06961712    3.37573827e+02
   562.0000 0.06967912    3.21776958e+02
   562.5000 0.06974111    3.07690208e+02
   563.0000 0.06980310    2.95138089e+02
   563.5000 0.06986509    2.83969948e+02
   564.0000 0.06992709    2.74056772e+02
   564.5000 0.06998908    2.65288474e+02
   565.0000 0.07005107    2.57571605e+02
   565.5000 0.07011306    2.50827462e+02
   566.0000 0.07017505    2.44990520e+02
   566.5000 0.07023705    2.40007176e+02
   567.0000 0.07029904    2.35834758e+02
   567.5000 0.07036103    2.32440776e+02
   568.0000 0.07042302    2.29802400e+02
   568.5000 0.07048501    2.27906149e+02
   569.0000 0.07054701    2.26747783e+02
   569.5000 0.07060900    2.26332393e+02
   570.0000 0.07067099    2.26674701e+02
   570.5000 0.07073298    2.27799559e+02
   571.0000 0.07079497    2.29742665e+02
   571.5000 0.07085697    2.32551500e+02
   572.0000 0.07091896    2.36286495e+02
   572.5000 0.07098095    2.41022411e+02
   573.0000 0.07104294    2.46849919e+02
   573.5000 0.07110494    2.53877321e+02
   574.0000 0.07116693    2.62232284e+02
   574.5000 0.07122892    2.72063391e+02
   575.0000 0.07129091    2.83541120e+02
   575.5000 0.07135290    2.96857659e+02
   576.0000 0.07141490    3.12224555e+02
   576.5000 0.07147689    3.29866703e+02
   577.0000 0.07153888    3.50010399e+02
   577.5000 0.07160087    3.72862264e+02
   578.0000 0.07166286    3.98574847e+02
   578.5000 0.07172486    4.27194017e+02
   579.0000 0.07178685    4.58583858e+02
   579.5000 0.07184884    4.92328196e+02
   580.0000 0.07191083    5.27616636e+02
   580.5000 0.07197282    5.63138970e+02
   581.0000 0.07203482    5.97033976e+02
   581.5000 0.07209681    6.26957385e+02
   582.0000 0.07215880    6.50328386e+02
   582.5000 0.07222079    6.64761065e+02
   583.0000 0.07228278    6.68587594e+02
   583.5000 0.07234478    6.61286512e+02
   584.0000 0.07240677    6.43625988e+02
   584.5000 0.07246876    6.17452600e+02
   585.0000 0.07253075    5.85227075e+02
   585.5000 0.07259275    5.49506692e+02
   586.0000 0.07265474    5.12546940e+02
   586.5000 0.07271673    4.76093694e+02
   587.0000 0.07277872    4.41344533e+02
   587.5000 0.07284071    4.09015541e+02
   588.0000 0.07290271    3.79451452e+02
   588.5000 0.07296470    3.52737758e+02
   589.0000 0.07302669    3.28794704e+02
   589.5000 0.07308868    3.07447604e+02
   590.0000 0.07315067    2.88475344e+02
   590.5000 0.07321267    2.71641673e+02
   591.0000 0.07327466    2.56714067e+02
   591.5000 0.07333665    2.43474178e+02
   592.0000 0.07339864    2.31722867e+02
   592.5000 0.07346063    2.21281903e+02
   593.0000 0.07352263    2.11993736e+02
   593.5000 0.07358462    2.03720221e+02
   594.0000 0.07364661    1.96340852e+02
   594.5000 0.07370860    1.89750833e+02
   595.0000 0.07377060    1.83859186e+02
   595.5000 0.07383259    1.78586964e+02
   596.0000 0.07389458    1.73865654e+02
   596.5000 0.07395657    1.69635749e+02
   597.0000 0.07401856    1.65845506e+02
   597.5000 0.07408056    1.62449869e+02
   598.0000 0.07414255    1.59409542e+02
   598.5000 0.07420454    1.56690193e+02
   599.0000 0.07426653    1.54261780e+02
   599.5000 0.07432852    1.52097961e+02
   600.0000 0.07439052    1.50175606e+02
   600.5000 0.07445251    1.48474372e+02
   601.0000 0.07451450    1.46976336e+02
   601.5000 0.07457649    1.45665693e+02
   602.0000 0.07463848    1.44528483e+02
   602.5000 0.07470048    1.43552368e+02
   603.0000 0.07476247    1.42726437e+02
   603.5000 0.07482446    1.42041035e+02
   604.0000 0.07488645    1.41487619e+02
   604.5000 0.07494845    1.41058632e+02
   605.0000 0.07501044    1.40747399e+02
   605.5000 0.07507243    1.40548028e+02
   606.0000 0.07513442    1.40455332e+02
   606.5000 0.07519641    1.40464760e+02
   607.0000 0.07525841    1.40572334e+02
   607.5000 0.07532040    1.40774595e+02
   608.0000 0.07538239    1.41068563e+02
   608.5000 0.07544438    1.41451691e+02
   609.0000 0.07550637    1.41921836e+02
   609.5000 0.07556837    1.42477225e+02
   610.0000 0.07563036    1.43116434e+02
   610.5000 0.07569235    1.43838365e+02
   611.0000 0.07575434    1.44642225e+02
   611.5000 0.07581633    1.45527519e+02
   612.0000 0.07587833    1.46494025e+02
   612.5000 0.07594032    1.47541798e+02
   613.0000 0.07600231    1.48671152e+02
   613.5000 0.07606430    1.49882658e+02
   614.0000 0.07612629    1.51177141e+02
   614.5000 0.07618829    1.52555681e+02
   615.0000 0.07625028    1.54019606e+02
   615.5000 0.07631227    1.55570501e+02
   616.0000 0.07637426    1.57210209e+02
   616.5000 0.07643626    1.58940836e+02
   617.0000 0.07649825    1.60764761e+02
   617.5000 0.07656024    1.62684641e+02
   618.0000 0.07662223    1.64703429e+02
   618.5000 0.07668422    1.66824377e+02
   619.0000 0.07674622    1.69051063e+02
   619.5000 0.07680821    1.71387398e+02
   620.0000 0.07687020    1.73837652e+02
   620.5000 0.07693219    1.76406475e+02
   621.0000 0.07699418    1.79098922e+02
   621.5000 0.07705618    1.81920479e+02
   622.0000 0.07711817    1.84877100e+02
   622.5000 0.07718016    1.87975235e+02
   623.0000 0.07724215    1.91221877e+02
   623.5000 0.07730414    1.94624597e+02
   624.0000 0.07736614    1.98191603e+02
   624.5000 0.07742813    2.01931783e+02
   625.0000 0.07749012    2.05854776e+02
   625.5000 0.07755211    2.09971032e+02
   626.0000 0.07761411    2.14291891e+02
   626.5000 0.07767610    2.18829664e+02
   627.0000 0.07773809    2.23597733e+02
   627.5000 0.07780008    2.28610647e+02
   628.0000 0.07786207    2.33884249e+02
   628.5000 0.07792407    2.39435802e+02
   629.0000 0.07798606    2.45284141e+02
   629.5000 0.07804805    2.51449839e+02
   630.0000 0.07811004    2.57955396e+02
   630.5000 0.07817203    2.64825452e+02
   631.0000 0.07823403    2.72087027e+02
   631.5000 0.07829602    2.79769796e+02
   632.0000 0.07835801    2.87906399e+02
   632.5000 0.07842000    2.96532790e+02
   633.0000 0.07848199    3.05688645e+02
   633.5000 0.07854399    3.15417814e+02
   634.0000 0.07860598    3.25768850e+02
   634.5000 0.07866797    3.36795611e+02
   635.0000 0.07872996    3.48557948e+02
   635.5000 0.07879196    3.61122504e+02
   636.0000 0.07885395    3.74563630e+02
   636.5000 0.07891594    3.88964442e+02
   637.0000 0.07897793    4.04418056e+02
   637.5000 0.07903992    4.21029007e+02
   638.0000 0.07910192    4.38914905e+02
   638.5000 0.07916391    4.58208369e+02
   639.0000 0.07922590    4.79059267e+02
   639.5000 0.07928789    5.01637351e+02
   640.0000 0.07934988    5.26135322e+02
   640.5000 0.07941188    5.52772425e+02
   641.0000 0.07947387    5.81798651e+02
   641.5000 0.07953586    6.13499654e+02
   642.0000 0.07959785    6.48202493e+02
   642.5000 0.07965984    6.86282320e+02
   643.0000 0.07972184    7.28170139e+02
   643.5000 0.07978383    7.74361738e+02
   644.0000 0.07984582    8.25427885e+02
   644.5000 0.07990781    8.82025776e+02
   645.0000 0.07996980    9.44911593e+02
   645.5000 0.08003180    1.01495379e+03
   646.0000 0.08009379    1.09314629e+03
   646.5000 0.08015578    1.18062008e+03
   647.0000 0.08021777    1.27865060e+03
   647.5000 0.08027977    1.38865655e+03
   648.0000 0.08034176    1.51218334e+03
   648.5000 0.08040375    1.65086035e+03
   649.0000 0.08046574    1.80631638e+03
   649.5000 0.08052773    1.98003119e+03
   650.0000 0.08058973    2.17309476e+03
   650.5000 0.08065172    2.38584223e+03
   651.0000 0.08071371    2.61733888e+03
   651.5000 0.08077570    2.86471677e+03
   652.0000 0.08083769    3.12242899e+03
   652.5000 0.08089969    3.38159904e+03
   653.0000 0.08096168    3.62978598e+03
   653.5000 0.08102367    3.85158470e+03
   654.0000 0.08108566    4.03039156e+03
   654.5000 0.08114765    4.15125564e+03
   655.0000 0.08120965    4.20407923e+03
   655.5000 0.08127164    4.18593414e+03
   656.0000 0.08133363    4.10143964e+03
   656.5000 0.08139562    3.96106742e+03
   657.0000 0.08145762    3.77827708e+03
   657.5000 0.08151961    3.56677601e+03
   658.0000 0.08158160    3.33876924e+03
   658.5000 0.08164359    3.10430312e+03
   659.0000 0.08170558    2.87129365e+03
   659.5000 0.08176758    2.64577359e+03
   660.0000 0.08182957    2.43211423e+03
   660.5000 0.08189156    2.23319941e+03
   661.0000 0.08195355    2.05061220e+03
   661.5000 0.08201554    1.88486813e+03
   662.0000 0.08207754    1.73567998e+03
   662.5000 0.08213953    1.60221714e+03
   663.0000 0.08220152    1.48332803e+03
   663.5000 0.08226351    1.37771098e+03
   664.0000 0.08232550    1.28403363e+03
   664.5000 0.08238750    1.20100897e+03
   665.0000 0.08244949    1.12743876e+03
   665.5000 0.08251148    1.06223434e+03
   666.0000 0.08257347    1.00442283e+03
   666.5000 0.08263547    9.53144481e+02
   667.0000 0.08269746    9.07645288e+02
   667.5000 0.08275945    8.67267247e+02
   668.0000 0.08282144    8.31437964e+02
   668.5000 0.08288343    7.99660459e+02
   669.0000 0.08294543    7.71503656e+02
   669.5000 0.08300742    7.46593803e+02
   670.0000 0.08306941    7.24606864e+02
   670.5000 0.08313140    7.05261872e+02
   671.0000 0.08319339    6.88315174e+02
   671.5000 0.08325539    6.73555480e+02
   672.0000 0.08331738    6.60799617e+02
   672.5000 0.08337937    6.49888905e+02
   673.0000 0.08344136    6.40686062e+02
   673.5000 0.08350335    6.33072579e+02
   674.0000 0.08356535    6.26946478e+02
   674.5000 0.08362734    6.22220420e+02
   675.0000 0.08368933    6.18820093e+02
   675.5000 0.08375132    6.16682857e+02
   676.0000 0.08381331    6.15756598e+02
   676.5000 0.08387531    6.15998775e+02
   677.0000 0.08393730    6.17375623e+02
   677.5000 0.08399929    6.19861498e+02
   678.0000 0.08406128    6.23438352e+02
   678.5000 0.08412328    6.28095317e+02
   679.0000 0.08418527    6.33828388e+02
   679.5000 0.08424726    6.40640205e+02
   680.0000 0.08430925    6.48539916e+02
   680.5000 0.08437124    6.57543124e+02
   681.0000 0.08443324    6.67671912e+02
   681.5000 0.08449523    6.78954952e+02
   682.0000 0.08455722    6.91427681e+02
   682.5000 0.08461921    7.05132566e+02
   683.0000 0.08468120    7.20119451e+02
   683.5000 0.08474320    7.36445989e+02
   684.0000 0.08480519    7.54178172e+02
   684.5000 0.08486718    7.73390964e+02
   685.0000 0.08492917    7.94169047e+02
   685.5000 0.08499116    8.16607696e+02
   686.0000 0.08505316    8.40813792e+02
   686.5000 0.08511515    8.66907005e+02
   687.0000 0.08517714    8.95021151e+02
   687.5000 0.08523913    9.25305764e+02
   688.0000 0.08530113    9.57927905e+02
   688.5000 0.08536312    9.93074255e+02
   689.0000 0.08542511    1.03095352e+03
   689.5000 0.08548710    1.07179923e+03
   690.0000 0.08554909    1.11587293e+03
   690.5000 0.08561109    1.16346793e+03
   691.0000 0.08567308    1.21491360e+03
   691.5000 0.08573507    1.27058041e+03
   692.0000 0.08579706    1.33088573e+03
   692.5000 0.08585905    1.39630063e+03
   693.0000 0.08592105    1.46735779e+03
   693.5000 0.08598304    1.54466076e+03
   694.0000 0.08604503    1.62889474e+03
   694.5000 0.08610702    1.72083925e+03
   695.0000 0.08616901    1.82138291e+03
   695.5000 0.08623101    1.93154083e+03
   696.0000 0.08629300    2.05247485e+03
   696.5000 0.08635499    2.18551724e+03
   697.0000 0.08641698    2.33219837e+03
   697.5000 0.08647898    2.49427861e+03
   698.0000 0.08654097    2.67378526e+03
   698.5000 0.08660296    2.87305442e+03
   699.0000 0.08666495    3.09477801e+03
   699.5000 0.08672694    3.34205508e+03
   700.0000 0.08678894    3.61844567e+03
   700.5000 0.08685093    3.92802359e+03
   701.0000 0.08691292    4.27542140e+03
   701.5000 0.08697491    4.66585607e+03
   702.0000 0.08703690    5.10511638e+03
   702.5000 0.08709890    5.59948176e+03
   703.0000 0.08716089    6.15552615e+03
   703.5000 0.08722288    6.77973844e+03
   704.0000 0.08728487    7.47786361e+03
   704.5000 0.08734686    8.25384169e+03
   705.0000 0.08740886    9.10820732e+03
   705.5000 0.08747085    1.00358418e+04
   706.0000 0.08753284    1.10230923e+04
   706.5000 0.08759483    1.20445582e+04
   707.0000 0.08765682    1.30603386e+04
   707.5000 0.08771882    1.40151688e+04
   708.0000 0.08778081    1.48413066e+04
   708.5000 0.08784280    1.54666367e+04
   709.0000 0.08790479    1.58276428e+04
   709.5000 0.08796679    1.58839708e+04
   710.0000 0.08802878    1.56290471e+04
   710.5000 0.08809077    1.50919033e+04
   711.0000 0.08815276    1.43293167e+04
   711.5000 0.08821475    1.34119849e+04
   712.0000 0.08827675    1.24104459e+04
   712.5000 0.08833874    1.13850404e+04
   713.0000 0.08840073    1.03812547e+04
   713.5000 0.08846272    9.42945307e+03
   714.0000 0.08852471    8.54714752e+03
   714.5000 0.08858671    7.74216835e+03
   715.0000 0.08864870    7.01572088e+03
   715.5000 0.08871069    6.36487349e+03
   716.0000 0.08877268    5.78438250e+03
   716.5000 0.08883467    5.26793181e+03
   717.0000 0.08889667    4.80892105e+03
   717.5000 0.08895866    4.40093324e+03
   718.0000 0.08902065    4.03798766e+03
   718.5000 0.08908264    3.71465606e+03
   719.0000 0.08914464    3.42609572e+03
   719.5000 0.08920663    3.16803488e+03
   720.0000 0.08926862    2.93673303e+03
   720.5000 0.08933061    2.72893002e+03
   721.0000 0.08939260    2.54179196e+03
   721.5000 0.08945460    2.37285878e+03
   722.0000 0.08951659    2.21999545e+03
   722.5000 0.08957858    2.08134829e+03
   723.0000 0.08964057    1.95530623e+03
   723.5000 0.08970256    1.84046717e+03
   724.0000 0.08976456    1.73560876e+03
   724.5000 0.08982655    1.63966344e+03
   725.0000 0.08988854    1.55169689e+03
   725.5000 0.08995053    1.47088971e+03
   726.0000 0.09001252    1.39652172e+03
   726.5000 0.09007452    1.32795856e+03
   727.0000 0.09013651    1.26464025e+03
   727.5000 0.09019850    1.20607139e+03
   728.0000 0.09026049    1.15181279e+03
   728.5000 0.09032249    1.10147427e+03
   729.0000 0.09038448    1.05470847e+03
   729.5000 0.09044647    1.01120557e+03
   730.0000 0.09050846    9.70688676e+02
   730.5000 0.09057045    9.32909895e+02
   731.0000 0.09063245    8.97646870e+02
   731.5000 0.09069444    8.64699819e+02
   732.0000 0.09075643    8.33888922e+02
   732.5000 0.09081842    8.05052040e+02
   733.0000 0.09088041    7.78042687e+02
   733.5000 0.09094241    7.52728221e+02
   734.0000 0.09100440    7.28988214e+02
   734.5000 0.09106639    7.06712968e+02
   735.0000 0.09112838    6.85802176e+02
   735.5000 0.09119037    6.66163763e+02
   736.0000 0.09125237    6.47712971e+02
   736.5000 0.09131436    6.30371786e+02
   737.0000 0.09137635    6.14068758e+02
   737.5000 0.09143834    5.98739170e+02
   738.0000 0.09150033    5.84325328e+02
   738.5000 0.09156233    5.70776626e+02
   739.0000 0.09162432    5.58049138e+02
   739.5000 0.09168631    5.46104720e+02
   740.0000 0.09174830    5.34909865e+02
   740.5000 0.09181030    5.24434633e+02
   741.0000 0.09187229    5.14651866e+02
   741.5000 0.09193428    5.05536759e+02
   742.0000 0.09199627    4.97066686e+02
   742.5000 0.09205826    4.89221189e+02
   743.0000 0.09212026    4.81982033e+02
   743.5000 0.09218225    4.75333274e+02
   744.0000 0.09224424    4.69261313e+02
   744.5000 0.09230623    4.63754941e+02
   745.0000 0.09236822    4.58805369e+02
   745.5000 0.09243022    4.54406260e+02
   746.0000 0.09249221    4.50553768e+02
   746.5000 0.09255420    4.47246586e+02
   747.0000 0.09261619    4.44486013e+02
   747.5000 0.09267818    4.42276053e+02
   748.0000 0.09274018    4.40623526e+02
   748.5000 0.09280217    4.39538224e+02
   749.0000 0.09286416    4.39033096e+02
   749.5000 0.09292615    4.39124471e+02
   750.0000 0.09298815    4.39832337e+02
   750.5000 0.09305014    4.41180658e+02
   751.0000 0.09311213    4.43197762e+02
   751.5000 0.09317412    4.45916792e+02
   752.0000 0.09323611    4.49376235e+02
   752.5000 0.09329811    4.53620545e+02
   753.0000 0.09336010    4.58700870e+02
   753.5000 0.09342209    4.64675903e+02
   754.0000 0.09348408    4.71612873e+02
   754.5000 0.09354607    4.79588711e+02
   755.0000 0.09360807    4.88691396e+02
   755.5000 0.09367006    4.99021538e+02
   756.0000 0.09373205    5.10694216e+02
   756.5000 0.09379404    5.23841108e+02
   757.0000 0.09385603    5.38612962e+02
   757.5000 0.09391803    5.55182433e+02
   758.0000 0.09398002    5.73747317e+02
   758.5000 0.09404201    5.94534196e+02
   759.0000 0.09410400    6.17802458e+02
   759.5000 0.09416600    6.43848601e+02
   760.0000 0.09422799    6.73010622e+02
   760.5000 0.09428998    7.05672113e+02
   761.0000 0.09435197    7.42265395e+02
   761.5000 0.09441396    7.83272631e+02
   762.0000 0.09447596    8.29223220e+02
   762.5000 0.09453795    8.80684980e+02
   763.0000 0.09459994    9.38245650e+02
   763.5000 0.09466193    1.00248029e+03
   764.0000 0.09472392    1.07389988e+03
   764.5000 0.09478592    1.15287788e+03
   765.0000 0.09484791    1.23955672e+03
   765.5000 0.09490990    1.33374725e+03
   766.0000 0.09497189    1.43485253e+03
   766.5000 0.09503388    1.54186732e+03
   767.0000 0.09509588    1.65351341e+03
   767.5000 0.09515787    1.76854298e+03
   768.0000 0.09521986    1.88616350e+03
   768.5000 0.09528185    2.00643061e+03
   769.0000 0.09534384    2.13039220e+03
   769.5000 0.09540584    2.25981892e+03
   770.0000 0.09546783    2.39651003e+03
   770.5000 0.09552982    2.54131966e+03
   771.0000 0.09559181    2.69311964e+03
   771.5000 0.09565381    2.84791562e+03
   772.0000 0.09571580    2.99833937e+03
   772.5000 0.09577779    3.13378558e+03
   773.0000 0.09583978    3.24147044e+03
   773.5000 0.09590177    3.30851420e+03
   774.0000 0.09596377    3.32471338e+03
   774.5000 0.09602576    3.28514021e+03
   775.0000 0.09608775    3.19150723e+03
   775.5000 0.09614974    3.05167698e+03
   776.0000 0.09621173    2.87757905e+03
   776.5000 0.09627373    2.68248900e+03
   777.0000 0.09633572    2.47868403e+03
   777.5000 0.09639771    2.27603378e+03
   778.0000 0.09645970    2.08154694e+03
   778.5000 0.09652169    1.89958230e+03
   779.0000 0.09658369    1.73238029e+03
   779.5000 0.09664568    1.58066052e+03
   780.0000 0.09670767    1.44414780e+03
   780.5000 0.09676966    1.32197806e+03
   781.0000 0.09683166    1.21298458e+03
   781.5000 0.09689365    1.11588623e+03
   782.0000 0.09695564    1.02940313e+03
   782.5000 0.09701763    9.52322336e+02
   783.0000 0.09707962    8.83530885e+02
   783.5000 0.09714162    8.22028530e+02
   784.0000 0.09720361    7.66928448e+02
   784.5000 0.09726560    7.17451354e+02
   785.0000 0.09732759    6.72916348e+02
   785.5000 0.09738958    6.32730554e+02
   786.0000 0.09745158    5.96378690e+02
   786.5000 0.09751357    5.63413237e+02
   787.0000 0.09757556    5.33445470e+02
   787.5000 0.09763755    5.06137484e+02
   788.0000 0.09769954    4.81195209e+02
   788.5000 0.09776154    4.58362339e+02
   789.0000 0.09782353    4.37415114e+02
   789.5000 0.09788552    4.18157827e+02
   790.0000 0.09794751    4.00418985e+02
   790.5000 0.09800951    3.84048027e+02
   791.0000 0.09807150    3.68912502e+02
   791.5000 0.09813349    3.54895659e+02
   792.0000 0.09819548    3.41894350e+02
   792.5000 0.09825747    3.29817206e+02
   793.0000 0.09831947    3.18583010e+02
   793.5000 0.09838146    3.08119212e+02
   794.0000 0.09844345    2.98360530e+02
   794.5000 0.09850544    2.89247574e+02
   795.0000 0.09856743    2.80725491e+02
   795.5000 0.09862943    2.72742634e+02
   796.0000 0.09869142    2.65249377e+02
   796.5000 0.09875341    2.58197320e+02
   797.0000 0.09881540    2.51539214e+02
   797.5000 0.09887739    2.45229902e+02
   798.0000 0.09893939    2.39228297e+02
   798.5000 0.09900138    2.33499860e+02
   799.0000 0.09906337    2.28018564e+02
   799.5000 0.09912536    2.22767340e+02
   800.0000 0.09918736    2.17736666e+02
   800.5000 0.09924935    2.12921865e+02
   801.0000 0.09931134    2.08320184e+02
   801.5000 0.09937333    2.03928561e+02
   802.0000 0.09943532    1.99742416e+02
   802.5000 0.09949732    1.95755368e+02
   803.0000 0.09955931    1.91959490e+02
   803.5000 0.09962130    1.88345818e+02
   804.0000 0.09968329    1.84904854e+02
   804.5000 0.09974528    1.81626996e+02
   805.0000 0.09980728    1.78502837e+02
   805.5000 0.09986927    1.75523361e+02
   806.0000 0.09993126    1.72680052e+02
   806.5000 0.09999325    1.69964946e+02
   807.0000 0.10005524    1.67370637e+02
   807.5000 0.10011724    1.64890271e+02
   808.0000 0.10017923    1.62517512e+02
   808.5000 0.10024122    1.60246509e+02
   809.0000 0.10030321    1.58071866e+02
   809.5000 0.10036520    1.55988599e+02
   810.0000 0.10042720    1.53992105e+02
   810.5000 0.10048919    1.52078129e+02
   811.0000 0.10055118    1.50242737e+02
   811.5000 0.10061317    1.48482288e+02
   812.0000 0.10067517    1.46793410e+02
   812.5000 0.10073716    1.45172982e+02
   813.0000 0.10079915    1.43618109e+02
   813.5000 0.10086114    1.42126111e+02
   814.0000 0.10092313    1.40694505e+02
   814.5000 0.10098513    1.39320993e+02
   815.0000 0.10104712    1.38003450e+02
   815.5000 0.10110911    1.36739913e+02
   816.0000 0.10117110    1.35528573e+02
   816.5000 0.10123309    1.34367768e+02
   817.0000 0.10129509    1.33255972e+02
   817.5000 0.10135708    1.32191797e+02
   818.0000 0.10141907    1.31173981e+02
   818.5000 0.10148106    1.30201388e+02
   819.0000 0.10154305    1.29273006e+02
   819.5000 0.10160505    1.28387943e+02
   820.0000 0.10166704    1.27545429e+02
   820.5000 0.10172903    1.26744815e+02
   821.0000 0.10179102    1.25985575e+02
   821.5000 0.10185302    1.25267306e+02
   822.0000 0.10191501    1.24589738e+02
   822.5000 0.10197700    1.23952735e+02
   823.0000 0.10203899    1.23356301e+02
   823.5000 0.10210098    1.22800594e+02
   824.0000 0.10216298    1.22285931e+02
   824.5000 0.10222497    1.21812808e+02
   825.0000 0.10228696    1.21381909e+02
   825.5000 0.10234895    1.20994129e+02
   826.0000 0.10241094    1.20650596e+02
   826.5000 0.10247294    1.20352699e+02
   827.0000 0.10253493    1.20102118e+02
   827.5000 0.10259692    1.19900863e+02
   828.0000 0.10265891    1.19751317e+02
   828.5000 0.10272090    1.19656289e+02
   829.0000 0.10278290    1.19619075e+02
   829.5000 0.10284489    1.19643527e+02
   830.0000 0.10290688    1.19734132e+02
   830.5000 0.10296887    1.19896108e+02
   831.0000 0.10303087    1.20135506e+02
   831.5000 0.10309286    1.20459319e+02
   832.0000 0.10315485    1.20875602e+02
   832.5000 0.10321684    1.21393584e+02
   833.0000 0.10327883    1.22023766e+02
   833.5000 0.10334083    1.22777971e+02
   834.0000 0.10340282    1.23669308e+02
   834.5000 0.10346481    1.24711984e+02
   835.0000 0.10352680    1.25920859e+02
   835.5000 0.10358879    1.27310592e+02
   836.0000 0.10365079    1.28894172e+02
   836.5000 0.10371278    1.30680569e+02
   837.0000 0.10377477    1.32671219e+02
   837.5000 0.10383676    1.34855137e+02
   838.0000 0.10389875    1.37202752e+02
   838.5000 0.10396075    1.39659207e+02
   839.0000 0.10402274    1.42138964e+02
   839.5000 0.10408473    1.44524878e+02
   840.0000 0.10414672    1.46675670e+02
   840.5000 0.10420871    1.48444511e+02
   841.0000 0.10427071    1.49707247e+02
   841.5000 0.10433270    1.50392513e+02
   842.0000 0.10439469    1.50501909e+02
   842.5000 0.10445668    1.50110914e+02
   843.0000 0.10451868    1.49350101e+02
   843.5000 0.10458067    1.48375485e+02
   844.0000 0.10464266    1.47339906e+02
   844.5000 0.10470465    1.46373672e+02
   845.0000 0.10476664    1.45576408e+02
   845.5000 0.10482864    1.45017607e+02
   846.0000 0.10489063    1.44741983e+02
   846.5000 0.10495262    1.44776340e+02
   847.0000 0.10501461    1.45136051e+02
   847.5000 0.10507660    1.45830305e+02
   848.0000 0.10513860    1.46866023e+02
   848.5000 0.10520059    1.48250625e+02
   849.0000 0.10526258    1.49993956e+02
   849.5000 0.10532457    1.52109631e+02
   850.0000 0.10538656    1.54616039e+02
   850.5000 0.10544856    1.57537166e+02
   851.0000 0.10551055    1.60903363e+02
   851.5000 0.10557254    1.64752134e+02
   852.0000 0.10563453    1.69129017e+02
   852.5000 0.10569653    1.74088588e+02
   853.0000 0.10575852    1.79695622e+02
   853.5000 0.10582051    1.86026420e+02
   854.0000 0.10588250    1.93170287e+02
   854.5000 0.10594449    2.01231127e+02
   855.0000 0.10600649    2.10329054e+02
   855.5000 0.10606848    2.20601843e+02
   856.0000 0.10613047    2.32205917e+02
   856.5000 0.10619246    2.45316339e+02
   857.0000 0.10625445    2.60124988e+02
   857.5000 0.10631645    2.76835624e+02
   858.0000 0.10637844    2.95653907e+02
   858.5000 0.10644043    3.16769619e+02
   859.0000 0.10650242    3.40327469e+02
   859.5000 0.10656441    3.66382181e+02
   860.0000 0.10662641    3.94833977e+02
   860.5000 0.10668840    4.25343322e+02
   861.0000 0.10675039    4.57231009e+02
   861.5000 0.10681238    4.89383276e+02
   862.0000 0.10687438    5.20200892e+02
   862.5000 0.10693637    5.47648492e+02
   863.0000 0.10699836    5.69458215e+02
   863.5000 0.10706035    5.83498809e+02
   864.0000 0.10712234    5.88235767e+02
   864.5000 0.10718434    5.83122541e+02
   865.0000 0.10724633    5.68751223e+02
   865.5000 0.10730832    5.46689899e+02
   866.0000 0.10737031    5.19085124e+02
   866.5000 0.10743230    4.88202808e+02
   867.0000 0.10749430    4.56064989e+02
   867.5000 0.10755629    4.24253060e+02
   868.0000 0.10761828    3.93863644e+02
   868.5000 0.10768027    3.65562304e+02
   869.0000 0.10774226    3.39679280e+02
   869.5000 0.10780426    3.16309131e+02
   870.0000 0.10786625    2.95395270e+02
   870.5000 0.10792824    2.76793702e+02
   871.0000 0.10799023    2.60317277e+02
   871.5000 0.10805222    2.45764415e+02
   872.0000 0.10811422    2.32936541e+02
   872.5000 0.10817621    2.21647833e+02
   873.0000 0.10823820    2.11729959e+02
   873.5000 0.10830019    2.03033670e+02
   874.0000 0.10836219    1.95428450e+02
   874.5000 0.10842418    1.88800958e+02
   875.0000 0.10848617    1.83052626e+02
   875.5000 0.10854816    1.78096552e+02
   876.0000 0.10861015    1.73853658e+02
   876.5000 0.10867215    1.70248044e+02
   877.0000 0.10873414    1.67201541e+02
   877.5000 0.10879613    1.64627826e+02
   878.0000 0.10885812    1.62427088e+02
   878.5000 0.10892011    1.60483140e+02
   879.0000 0.10898211    1.58665593e+02
   879.5000 0.10904410    1.56839431e+02
   880.0000 0.10910609    1.54882119e+02
   880.5000 0.10916808    1.52704251e+02
   881.0000 0.10923007    1.50266108e+02
   881.5000 0.10929207    1.47582510e+02
   882.0000 0.10935406    1.44713416e+02
   882.5000 0.10941605    1.41744616e+02
   883.0000 0.10947804    1.38766639e+02
   883.5000 0.10954004    1.35858714e+02
   884.0000 0.10960203    1.33080501e+02
   884.5000 0.10966402    1.30470596e+02
   885.0000 0.10972601    1.28049219e+02
   885.5000 0.10978800    1.25822586e+02
   886.0000 0.10985000    1.23787329e+02
   886.5000 0.10991199    1.21934175e+02
   887.0000 0.10997398    1.20250683e+02
   887.5000 0.11003597    1.18723104e+02
   888.0000 0.11009796    1.17337576e+02
   888.5000 0.11015996    1.16080810e+02
   889.0000 0.11022195    1.14940472e+02
   889.5000 0.11028394    1.13905330e+02
   890.0000 0.11034593    1.12965295e+02
   890.5000 0.11040792    1.12111374e+02
   891.0000 0.11046992    1.11335594e+02
   891.5000 0.11053191    1.10630909e+02
   892.0000 0.11059390    1.09991099e+02
   892.5000 0.11065589    1.09410676e+02
   893.0000 0.11071789    1.08884799e+02
   893.5000 0.11077988    1.08409191e+02
   894.0000 0.11084187    1.07980077e+02
   894.5000 0.11090386    1.07594113e+02
   895.0000 0.11096585    1.07248342e+02
   895.5000 0.11102785    1.06940144e+02
   896.0000 0.11108984    1.06667198e+02
   896.5000 0.11115183    1.06427447e+02
   897.0000 0.11121382    1.06219070e+02
   897.5000 0.11127581    1.06040459e+02
   898.0000 0.11133781    1.05890194e+02
   898.5000 0.11139980    1.05767029e+02
   899.0000 0.11146179    1.05669875e+02
   899.5000 0.11152378    1.05597788e+02
   900.0000 0.11158577    1.05549960e+02
   900.5000 0.11164777    1.05525707e+02
   901.0000 0.11170976    1.05524466e+02
   901.5000 0.11177175    1.05545789e+02
   902.0000 0.11183374    1.05589338e+02
   902.5000 0.11189573    1.05654886e+02
   903.0000 0.11195773    1.05742313e+02
   903.5000 0.11201972    1.05851610e+02
   904.0000 0.11208171    1.05982879e+02
   904.5000 0.11214370    1.06136342e+02
   905.0000 0.11220570    1.06312339e+02
   905.5000 0.11226769    1.06511341e+02
   906.0000 0.11232968    1.06733961e+02
   906.5000 0.11239167    1.06980961e+02
   907.0000 0.11245366    1.07253271e+02
   907.5000 0.11251566    1.07552002e+02
   908.0000 0.11257765    1.07878472e+02
   908.5000 0.11263964    1.08234229e+02
   909.0000 0.11270163    1.08621079e+02
   909.5000 0.11276362    1.09041121e+02
   910.0000 0.11282562    1.09496789e+02
   910.5000 0.11288761    1.09990898e+02
   911.0000 0.11294960    1.10526699e+02
   911.5000 0.11301159    1.11107941e+02
   912.0000 0.11307358    1.11738943e+02
   912.5000 0.11313558    1.12424673e+02
   913.0000 0.11319757    1.13170833e+02
   913.5000 0.11325956    1.13983952e+02
   914.0000 0.11332155    1.14871467e+02
   914.5000 0.11338355    1.15841796e+02
   915.0000 0.11344554    1.16904377e+02
   915.5000 0.11350753    1.18069635e+02
   916.0000 0.11356952    1.19348833e+02
   916.5000 0.11363151    1.20753738e+02
   917.0000 0.11369351    1.22295979e+02
   917.5000 0.11375550    1.23985980e+02
   918.0000 0.11381749    1.25831302e+02
   918.5000 0.11387948    1.27834263e+02
   919.0000 0.11394147    1.29988837e+02
   919.5000 0.11400347    1.32277140e+02
   920.0000 0.11406546    1.34666342e+02
   920.5000 0.11412745    1.37107584e+02
   921.0000 0.11418944    1.39539015e+02
   921.5000 0.11425143    1.41894743e+02
   922.0000 0.11431343    1.44119559e+02
   922.5000 0.11437542    1.46185951e+02
   923.0000 0.11443741    1.48107123e+02
   923.5000 0.11449940    1.49940015e+02
   924.0000 0.11456140    1.51776582e+02
   924.5000 0.11462339    1.53726889e+02
   925.0000 0.11468538    1.55900206e+02
   925.5000 0.11474737    1.58388814e+02
   926.0000 0.11480936    1.61255822e+02
   926.5000 0.11487136    1.64525476e+02
   927.0000 0.11493335    1.68173649e+02
   927.5000 0.11499534    1.72117363e+02
   928.0000 0.11505733    1.76204726e+02
   928.5000 0.11511932    1.80210077e+02
   929.0000 0.11518132    1.83842066e+02
   929.5000 0.11524331    1.86772573e+02
   930.0000 0.11530530    1.88688760e+02
   930.5000 0.11536729    1.89358683e+02
   931.0000 0.11542928    1.88688418e+02
   931.5000 0.11549128    1.86746123e+02
   932.0000 0.11555327    1.83741572e+02
   932.5000 0.11561526    1.79971119e+02
   933.0000 0.11567725    1.75752337e+02
   933.5000 0.11573924    1.71371203e+02
   934.0000 0.11580124    1.67052664e+02
   934.5000 0.11586323    1.62953211e+02
   935.0000 0.11592522    1.59167840e+02
   935.5000 0.11598721    1.55743397e+02
   936.0000 0.11604921    1.52692730e+02
   936.5000 0.11611120    1.50006789e+02
   937.0000 0.11617319    1.47663805e+02
   937.5000 0.11623518    1.45635676e+02
   938.0000 0.11629717    1.43892125e+02
   938.5000 0.11635917    1.42403216e+02
   939.0000 0.11642116    1.41140775e+02
   939.5000 0.11648315    1.40079072e+02
   940.0000 0.11654514    1.39195079e+02
   940.5000 0.11660713    1.38468447e+02
   941.0000 0.11666913    1.37881359e+02
   941.5000 0.11673112    1.37418308e+02
   942.0000 0.11679311    1.37065847e+02
   942.5000 0.11685510    1.36812353e+02
   943.0000 0.11691709    1.36647797e+02
   943.5000 0.11697909    1.36563537e+02
   944.0000 0.11704108    1.36552139e+02
   944.5000 0.11710307    1.36607218e+02
   945.0000 0.11716506    1.36723304e+02
   945.5000 0.11722706    1.36895723e+02
   946.0000 0.11728905    1.37120503e+02
   946.5000 0.11735104    1.37394291e+02
   947.0000 0.11741303    1.37714283e+02
   947.5000 0.11747502    1.38078176e+02
   948.0000 0.11753702    1.38484114e+02
   948.5000 0.11759901    1.38930661e+02
   949.0000 0.11766100    1.39416773e+02
   949.5000 0.11772299    1.39941781e+02
   950.0000 0.11778498    1.40505384e+02
   950.5000 0.11784698    1.41107644e+02
   951.0000 0.11790897    1.41748995e+02
   951.5000 0.11797096    1.42430259e+02
   952.0000 0.11803295    1.43152666e+02
   952.5000 0.11809494    1.43917884e+02
   953.0000 0.11815694    1.44728063e+02
   953.5000 0.11821893    1.45585883e+02
   954.0000 0.11828092    1.46494609e+02
   954.5000 0.11834291    1.47458166e+02
   955.0000 0.11840491    1.48481206e+02
   955.5000 0.11846690    1.49569186e+02
   956.0000 0.11852889    1.50728445e+02
   956.5000 0.11859088    1.51966250e+02
   957.0000 0.11865287    1.53290815e+02
   957.5000 0.11871487    1.54711232e+02
   958.0000 0.11877686    1.56237276e+02
   958.5000 0.11883885    1.57878982e+02
   959.0000 0.11890084    1.59645886e+02
   959.5000 0.11896283    1.61545749e+02
   960.0000 0.11902483    1.63582565e+02
   960.5000 0.11908682    1.65753658e+02
   961.0000 0.11914881    1.68045746e+02
   961.5000 0.11921080    1.70430184e+02
   962.0000 0.11927279    1.72858134e+02
   962.5000 0.11933479    1.75257336e+02
   963.0000 0.11939678    1.77533073e+02
   963.5000 0.11945877    1.79576133e+02
   964.0000 0.11952076    1.81279040e+02
   964.5000 0.11958275    1.82558036e+02
   965.0000 0.11964475    1.83373820e+02
   965.5000 0.11970674    1.83742307e+02
   966.0000 0.11976873    1.83730278e+02
   966.5000 0.11983072    1.83438044e+02
   967.0000 0.11989272    1.82976936e+02
   967.5000 0.11995471    1.82449952e+02
   968.0000 0.12001670    1.81940137e+02
   968.5000 0.12007869    1.81506845e+02
   969.0000 0.12014068    1.81187483e+02
   969.5000 0.12020268    1.81001898e+02
   970.0000 0.12026467    1.80957310e+02
   970.5000 0.12032666    1.81052660e+02
   971.0000 0.12038865    1.81281963e+02
   971.5000 0.12045064    1.81636678e+02
   972.0000 0.12051264    1.82107272e+02
   972.5000 0.12057463    1.82684182e+02
   973.0000 0.12063662    1.83358369e+02
   973.5000 0.12069861    1.84121596e+02
   974.0000 0.12076060    1.84966544e+02
   974.5000 0.12082260    1.85886822e+02
   975.0000 0.12088459    1.86876932e+02
   975.5000 0.12094658    1.87932193e+02
   976.0000 0.12100857    1.89048666e+02
   976.5000 0.12107057    1.90223076e+02
   977.0000 0.12113256    1.91452733e+02
   977.5000 0.12119455    1.92735464e+02
   978.0000 0.12125654    1.94069559e+02
   978.5000 0.12131853    1.95453712e+02
   979.0000 0.12138053    1.96886985e+02
   979.5000 0.12144252    1.98368767e+02
   980.0000 0.12150451    1.99898745e+02
   980.5000 0.12156650    2.01476884e+02
   981.0000 0.12162849    2.03103407e+02
   981.5000 0.12169049    2.04778781e+02
   982.0000 0.12175248    2.06503711e+02
   982.5000 0.12181447    2.08279136e+02
   983.0000 0.12187646    2.10106225e+02
   983.5000 0.12193845    2.11986390e+02
   984.0000 0.12200045    2.13921285e+02
   984.5000 0.12206244    2.15912824e+02
   985.0000 0.12212443    2.17963199e+02
   985.5000 0.12218642    2.20074899e+02
   986.0000 0.12224842    2.22250743e+02
   986.5000 0.12231041    2.24493908e+02
   987.0000 0.12237240    2.26807974e+02
   987.5000 0.12243439    2.29196976e+02
   988.0000 0.12249638    2.31665455e+02
   988.5000 0.12255838    2.34218534e+02
   989.0000 0.12262037    2.36861999e+02
   989.5000 0.12268236    2.39602390e+02
   990.0000 0.12274435    2.42447114e+02
   990.5000 0.12280634    2.45404576e+02
   991.0000 0.12286834    2.48484318e+02
   991.5000 0.12293033    2.51697188e+02
   992.0000 0.12299232    2.55055511e+02
   992.5000 0.12305431    2.58573284e+02
   993.0000 0.12311630    2.62266348e+02
   993.5000 0.12317830    2.66152552e+02
   994.0000 0.12324029    2.70251831e+02
   994.5000 0.12330228    2.74586166e+02
   995.0000 0.12336427    2.79179292e+02
   995.5000 0.12342626    2.84056016e+02
   996.0000 0.12348826    2.89240892e+02
   996.5000 0.12355025    2.94755936e+02
   997.0000 0.12361224    3.00616945e+02
   997.5000 0.12367423    3.06827979e+02
   998.0000 0.12373623    3.13373626e+02
   998.5000 0.12379822    3.20209169e+02
   999.0000 0.12386021    3.27249723e+02
   999.5000 0.12392220    3.34361176e+02
  1000.0000 0.12398419    3.41357854e+02
  1000.5000 0.12404619    3.48013263e+02
  1001.0000 0.12410818    3.54088626e+02
  1001.5000 0.12417017    3.59377518e+02
  1002.0000 0.12423216    3.63754908e+02
  1002.5000 0.12429415    3.67211687e+02
  1003.0000 0.12435615    3.69858824e+02
  1003.5000 0.12441814    3.71899118e+02
  1004.0000 0.12448013    3.73579881e+02
  1004.5000 0.12454212    3.75145852e+02
  1005.0000 0.12460411    3.76806342e+02
  1005.5000 0.12466611    3.78720543e+02
  1006.0000 0.12472810    3.80997324e+02
  1006.5000 0.12479009    3.83703204e+02
  1007.0000 0.12485208    3.86873059e+02
  1007.5000 0.12491408    3.90520240e+02
  1008.0000 0.12497607    3.94644619e+02
  1008.5000 0.12503806    3.99238281e+02
  1009.0000 0.12510005    4.04289114e+02
  1009.5000 0.12516204    4.09782799e+02
  1010.0000 0.12522404    4.15703715e+02
  1010.5000 0.12528603    4.22035367e+02
  1011.0000 0.12534802    4.28760928e+02
  1011.5000 0.12541001    4.35864477e+02
  1012.0000 0.12547200    4.43333229e+02
  1012.5000 0.12553400    4.51160486e+02
  1013.0000 0.12559599    4.59348421e+02
  1013.5000 0.12565798    4.67909509e+02
  1014.0000 0.12571997    4.76865919e+02
  1014.5000 0.12578196    4.86247180e+02
  1015.0000 0.12584396    4.96087214e+02
  1015.5000 0.12590595    5.06421878e+02
  1016.0000 0.12596794    5.17287627e+02
  1016.5000 0.12602993    5.28721218e+02
  1017.0000 0.12609193    5.40760100e+02
  1017.5000 0.12615392    5.53443080e+02
  1018.0000 0.12621591    5.66811057e+02
  1018.5000 0.12627790    5.80907731e+02
  1019.0000 0.12633989    5.95780297e+02
  1019.5000 0.12640189    6.11480136e+02
  1020.0000 0.12646388    6.28063506e+02
  1020.5000 0.12652587    6.45592253e+02
  1021.0000 0.12658786    6.64134547e+02
  1021.5000 0.12664985    6.83765670e+02
  1022.0000 0.12671185    7.04568869e+02
  1022.5000 0.12677384    7.26636305e+02
  1023.0000 0.12683583    7.50070114e+02
  1023.5000 0.12689782    7.74983620e+02
  1024.0000 0.12695981    8.01502713e+02
  1024.5000 0.12702181    8.29767433e+02
  1025.0000 0.12708380    8.59933785e+02
  1025.5000 0.12714579    8.92175836e+02
  1026.0000 0.12720778    9.26688119e+02
  1026.5000 0.12726977    9.63688410e+02
  1027.0000 0.12733177    1.00342092e+03
  1027.5000 0.12739376    1.04615997e+03
  1028.0000 0.12745575    1.09221420e+03
  1028.5000 0.12751774    1.14193135e+03
  1029.0000 0.12757974    1.19570378e+03
  1029.5000 0.12764173    1.25397458e+03
  1030.0000 0.12770372    1.31724448e+03
  1030.5000 0.12776571    1.38607943e+03
  1031.0000 0.12782770    1.46111889e+03
  1031.5000 0.12788970    1.54308480e+03
  1032.0000 0.12795169    1.63279130e+03
  1032.5000 0.12801368    1.73115573e+03
  1033.0000 0.12807567    1.83921171e+03
  1033.5000 0.12813766    1.95812655e+03
  1034.0000 0.12819966    2.08922560e+03
  1034.5000 0.12826165    2.23402679e+03
  1035.0000 0.12832364    2.39428676e+03
  1035.5000 0.12838563    2.57205569e+03
  1036.0000 0.12844762    2.76973324e+03
  1036.5000 0.12850962    2.99011506e+03
  1037.0000 0.12857161    3.23642169e+03
  1037.5000 0.12863360    3.51230480e+03
  1038.0000 0.12869559    3.82182345e+03
  1038.5000 0.12875759    4.16937117e+03
  1039.0000 0.12881958    4.55951609e+03
  1039.5000 0.12888157    4.99669704e+03
  1040.0000 0.12894356    5.48470330e+03
  1040.5000 0.12900555    6.02585352e+03
  1041.0000 0.12906755    6.61978763e+03
  1041.5000 0.12912954    7.26181647e+03
  1042.0000 0.12919153    7.94087746e+03
  1042.5000 0.12925352    8.63737131e+03
  1043.0000 0.12931551    9.32152374e+03
  1043.5000 0.12937751    9.95334192e+03
  1044.0000 0.12943950    1.04854322e+04
  1044.5000 0.12950149    1.08694533e+04
  1045.0000 0.12956348    1.10654929e+04
  1045.5000 0.12962547    1.10516363e+04
  1046.0000 0.12968747    1.08298564e+04
  1046.5000 0.12974946    1.04254633e+04
  1047.0000 0.12981145    9.88038211e+03
  1047.5000 0.12987344    9.24336446e+03
  1048.0000 0.12993544    8.56094932e+03
  1048.5000 0.12999743    7.87159771e+03
  1049.0000 0.13005942    7.20341392e+03
  1049.5000 0.13012141    6.57453549e+03
  1050.0000 0.13018340    5.99492203e+03
  1050.5000 0.13024540    5.46853413e+03
  1051.0000 0.13030739    4.99532294e+03
  1051.5000 0.13036938    4.57280009e+03
  1052.0000 0.13043137    4.19716434e+03
  1052.5000 0.13049336    3.86405354e+03
  1053.0000 0.13055536    3.56901473e+03
  1053.5000 0.13061735    3.30777734e+03
  1054.0000 0.13067934    3.07639638e+03
  1054.5000 0.13074133    2.87131373e+03
  1055.0000 0.13080332    2.68937044e+03
  1055.5000 0.13086532    2.52779124e+03
  1056.0000 0.13092731    2.38415498e+03
  1056.5000 0.13098930    2.25635899e+03
  1057.0000 0.13105129    2.14258209e+03
  1057.5000 0.13111328    2.04124885e+03
  1058.0000 0.13117528    1.95099614e+03
  1058.5000 0.13123727    1.87064244e+03
  1059.0000 0.13129926    1.79915983e+03
  1059.5000 0.13136125    1.73564853e+03
  1060.0000 0.13142325    1.67931441e+03
  1060.5000 0.13148524    1.62945006e+03
  1061.0000 0.13154723    1.58542133e+03
  1061.5000 0.13160922    1.54666122e+03
  1062.0000 0.13167121    1.51267230e+03
  1062.5000 0.13173321    1.48303620e+03
  1063.0000 0.13179520    1.45742472e+03
  1063.5000 0.13185719    1.43560560e+03
  1064.0000 0.13191918    1.41743732e+03
  1064.5000 0.13198117    1.40285368e+03
  1065.0000 0.13204317    1.39184357e+03
  1065.5000 0.13210516    1.38443307e+03
  1066.0000 0.13216715    1.38067411e+03
  1066.5000 0.13222914    1.38064074e+03
  1067.0000 0.13229113    1.38443106e+03
  1067.5000 0.13235313    1.39217270e+03
  1068.0000 0.13241512    1.40402985e+03
  1068.5000 0.13247711    1.42021114e+03
  1069.0000 0.13253910    1.44097763e+03
  1069.5000 0.13260110    1.46665142e+03
  1070.0000 0.13266309    1.49762462e+03
  1070.5000 0.13272508    1.53436927e+03
  1071.0000 0.13278707    1.57744811e+03
  1071.5000 0.13284906    1.62752625e+03
  1072.0000 0.13291106    1.68538333e+03
  1072.5000 0.13297305    1.75192540e+03
  1073.0000 0.13303504    1.82819491e+03
  1073.5000 0.13309703    1.91537615e+03
  1074.0000 0.13315902    2.01479168e+03
  1074.5000 0.13322102    2.12788246e+03
  1075.0000 0.13328301    2.25616090e+03
  1075.5000 0.13334500    2.40112048e+03
  1076.0000 0.13340699    2.56407943e+03
  1076.5000 0.13346898    2.74592956e+03
  1077.0000 0.13353098    2.94675796e+03
  1077.5000 0.13359297    3.16531668e+03
  1078.0000 0.13365496    3.39834455e+03
  1078.5000 0.13371695    3.63981354e+03
  1079.0000 0.13377895    3.88028843e+03
  1079.5000 0.13384094    4.10673736e+03
  1080.0000 0.13390293    4.30323060e+03
  1080.5000 0.13396492    4.45286627e+03
  1081.0000 0.13402691    4.54082930e+03
  1081.5000 0.13408891    4.55780096e+03
  1082.0000 0.13415090    4.50241660e+03
  1082.5000 0.13421289    4.38164621e+03
  1083.0000 0.13427488    4.20891227e+03
  1083.5000 0.13433687    4.00083416e+03
  1084.0000 0.13439887    3.77393828e+03
  1084.5000 0.13446086    3.54232939e+03
  1085.0000 0.13452285    3.31662297e+03
  1085.5000 0.13458484    3.10389908e+03
  1086.0000 0.13464683    2.90824216e+03
  1086.5000 0.13470883    2.73148580e+03
  1087.0000 0.13477082    2.57392719e+03
  1087.5000 0.13483281    2.43490675e+03
  1088.0000 0.13489480    2.31323158e+03
  1088.5000 0.13495679    2.20746131e+03
  1089.0000 0.13501879    2.11608705e+03
  1089.5000 0.13508078    2.03763366e+03
  1090.0000 0.13514277    1.97070947e+03
  1090.5000 0.13520476    1.91402155e+03
  1091.0000 0.13526676    1.86637014e+03
  1091.5000 0.13532875    1.82663329e+03
  1092.0000 0.13539074    1.79375267e+03
  1092.5000 0.13545273    1.76673131e+03
  1093.0000 0.13551472    1.74465188e+03
  1093.5000 0.13557672    1.72671650e+03
  1094.0000 0.13563871    1.71229683e+03
  1094.5000 0.13570070    1.70097239e+03
  1095.0000 0.13576269    1.69253564e+03
  1095.5000 0.13582468    1.68695739e+03
  1096.0000 0.13588668    1.68432553e+03
  1096.5000 0.13594867    1.68478053e+03
  1097.0000 0.13601066    1.68846712e+03
  1097.5000 0.13607265    1.69550899e+03
  1098.0000 0.13613464    1.70600376e+03
  1098.5000 0.13619664    1.72003017e+03
  1099.0000 0.13625863    1.73766061e+03
  1099.5000 0.13632062    1.75897422e+03
  1100.0000 0.13638261    1.78406817e+03
  1100.5000 0.13644461    1.81306650e+03
  1101.0000 0.13650660    1.84612643e+03
  1101.5000 0.13656859    1.88344211e+03
  1102.0000 0.13663058    1.92524571e+03
  1102.5000 0.13669257    1.97180494e+03
  1103.0000 0.13675457    2.02341557e+03
  1103.5000 0.13681656    2.08038636e+03
  1104.0000 0.13687855    2.14301290e+03
  1104.5000 0.13694054    2.21153574e+03
  1105.0000 0.13700253    2.28607781e+03
  1105.5000 0.13706453    2.36655797e+03
  1106.0000 0.13712652    2.45258291e+03
  1106.5000 0.13718851    2.54333189e+03
  1107.0000 0.13725050    2.63746865e+03
  1107.5000 0.13731249    2.73313800e+03
  1108.0000 0.13737449    2.82811619e+03
  1108.5000 0.13743648    2.92015938e+03
  1109.0000 0.13749847    3.00751572e+03
  1109.5000 0.13756046    3.08945648e+03
  1110.0000 0.13762246    3.16661637e+03
  1110.5000 0.13768445    3.24098745e+03
  1111.0000 0.13774644    3.31557371e+03
  1111.5000 0.13780843    3.39387021e+03
  1112.0000 0.13787042    3.47937382e+03
  1112.5000 0.13793242    3.57525988e+03
  1113.0000 0.13799441    3.68424730e+03
  1113.5000 0.13805640    3.80859897e+03
  1114.0000 0.13811839    3.95017981e+03
  1114.5000 0.13818038    4.11050489e+03
  1115.0000 0.13824238    4.29072914e+03
  1115.5000 0.13830437    4.49154595e+03
  1116.0000 0.13836636    4.71297336e+03
  1116.5000 0.13842835    4.95402191e+03
  1117.0000 0.13849034    5.21226695e+03
  1117.5000 0.13855234    5.48340495e+03
  1118.0000 0.13861433    5.76095792e+03
  1118.5000 0.13867632    6.03637882e+03
  1119.0000 0.13873831    6.29983152e+03
  1119.5000 0.13880030    6.54176853e+03
  1120.0000 0.13886230    6.75506521e+03
  1120.5000 0.13892429    6.93703549e+03
  1121.0000 0.13898628    7.09048689e+03
  1121.5000 0.13904827    7.22332036e+03
  1122.0000 0.13911027    7.34687968e+03
  1122.5000 0.13917226    7.47380641e+03
  1123.0000 0.13923425    7.61620419e+03
  1123.5000 0.13929624    7.78455516e+03
  1124.0000 0.13935823    7.98740444e+03
  1124.5000 0.13942023    8.23158156e+03
  1125.0000 0.13948222    8.52268640e+03
  1125.5000 0.13954421    8.86563872e+03
  1126.0000 0.13960620    9.26518348e+03
  1126.5000 0.13966819    9.72631523e+03
  1127.0000 0.13973019    1.02546237e+04
  1127.5000 0.13979218    1.08565799e+04
  1128.0000 0.13985417    1.15397837e+04
  1128.5000 0.13991616    1.23131923e+04
  1129.0000 0.13997815    1.31873410e+04
  1129.5000 0.14004015    1.41745624e+04
  1130.0000 0.14010214    1.52891994e+04
  1130.5000 0.14016413    1.65477965e+04
  1131.0000 0.14022612    1.79692375e+04
  1131.5000 0.14028812    1.95747721e+04
  1132.0000 0.14035011    2.13878365e+04
  1132.5000 0.14041210    2.34335187e+04
  1133.0000 0.14047409    2.57374457e+04
  1133.5000 0.14053608    2.83237672e+04
  1134.0000 0.14059808    3.12118027e+04
  1134.5000 0.14066007    3.44108272e+04
  1135.0000 0.14072206    3.79124824e+04
  1135.5000 0.14078405    4.16805790e+04
  1136.0000 0.14084604    4.56388323e+04
  1136.5000 0.14090804    4.96586218e+04
  1137.0000 0.14097003    5.35511743e+04
  1137.5000 0.14103202    5.70709083e+04
  1138.0000 0.14109401    5.99370434e+04
  1138.5000 0.14115600    6.18762783e+04
  1139.0000 0.14121800    6.26794074e+04
  1139.5000 0.14127999    6.22534199e+04
  1140.0000 0.14134198    6.06468978e+04
  1140.5000 0.14140397    5.80365602e+04
  1141.0000 0.14146597    5.46814895e+04
  1141.5000 0.14152796    5.08655284e+04
  1142.0000 0.14158995    4.68487769e+04
  1142.5000 0.14165194    4.28391695e+04
  1143.0000 0.14171393    3.89839681e+04
  1143.5000 0.14177593    3.53748203e+04
  1144.0000 0.14183792    3.20591842e+04
  1144.5000 0.14189991    2.90529078e+04
  1145.0000 0.14196190    2.63511997e+04
  1145.5000 0.14202389    2.39370484e+04
  1146.0000 0.14208589    2.17871409e+04
  1146.5000 0.14214788    1.98757474e+04
  1147.0000 0.14220987    1.81771057e+04
  1147.5000 0.14227186    1.66667765e+04
  1148.0000 0.14233385    1.53223266e+04
  1148.5000 0.14239585    1.41235944e+04
  1149.0000 0.14245784    1.30527088e+04
  1149.5000 0.14251983    1.20939718e+04
  1150.0000 0.14258182    1.12336743e+04
  1150.5000 0.14264381    1.04598863e+04
  1151.0000 0.14270581    9.76224582e+03
  1151.5000 0.14276780    9.13175947e+03
  1152.0000 0.14282979    8.56062068e+03
  1152.5000 0.14289178    8.04204790e+03
  1153.0000 0.14295378    7.57014283e+03
  1153.5000 0.14301577    7.13976738e+03
  1154.0000 0.14307776    6.74643764e+03
  1154.5000 0.14313975    6.38623285e+03
  1155.0000 0.14320174    6.05571754e+03
  1155.5000 0.14326374    5.75187494e+03
  1156.0000 0.14332573    5.47205014e+03
  1156.5000 0.14338772    5.21390149e+03
  1157.0000 0.14344971    4.97535906e+03
  1157.5000 0.14351170    4.75458912e+03
  1158.0000 0.14357370    4.54996364e+03
  1158.5000 0.14363569    4.36003415e+03
  1159.0000 0.14369768    4.18350925e+03
  1159.5000 0.14375967    4.01923528e+03
  1160.0000 0.14382166    3.86617956e+03
  1160.5000 0.14388366    3.72341593e+03
  1161.0000 0.14394565    3.59011227e+03
  1161.5000 0.14400764    3.46551960e+03
  1162.0000 0.14406963    3.34896259e+03
  1162.5000 0.14413163    3.23983138e+03
  1163.0000 0.14419362    3.13757431e+03
  1163.5000 0.14425561    3.04169168e+03
  1164.0000 0.14431760    2.95173016e+03
  1164.5000 0.14437959    2.86727801e+03
  1165.0000 0.14444159    2.78796074e+03
  1165.5000 0.14450358    2.71343740e+03
  1166.0000 0.14456557    2.64339722e+03
  1166.5000 0.14462756    2.57755672e+03
  1167.0000 0.14468955    2.51565707e+03
  1167.5000 0.14475155    2.45746180e+03
  1168.0000 0.14481354    2.40275476e+03
  1168.5000 0.14487553    2.35133832e+03
  1169.0000 0.14493752    2.30303173e+03
  1169.5000 0.14499951    2.25766970e+03
  1170.0000 0.14506151    2.21510112e+03
  1170.5000 0.14512350    2.17518794e+03
  1171.0000 0.14518549    2.13780417e+03
  1171.5000 0.14524748    2.10283495e+03
  1172.0000 0.14530948    2.07017578e+03
  1172.5000 0.14537147    2.03973185e+03
  1173.0000 0.14543346    2.01141736e+03
  1173.5000 0.14549545    1.98515504e+03
  1174.0000 0.14555744    1.96087562e+03
  1174.5000 0.14561944    1.93851743e+03
  1175.0000 0.14568143    1.91802606e+03
  1175.5000 0.14574342    1.89935393e+03
  1176.0000 0.14580541    1.88246007e+03
  1176.5000 0.14586740    1.86730975e+03
  1177.0000 0.14592940    1.85387419e+03
  1177.5000 0.14599139    1.84213020e+03
  1178.0000 0.14605338    1.83205981e+03
  1178.5000 0.14611537    1.82365001e+03
  1179.0000 0.14617736    1.81689248e+03
  1179.5000 0.14623936    1.81178369e+03
  1180.0000 0.14630135    1.80832553e+03
  1180.5000 0.14636334    1.80652647e+03
  1181.0000 0.14642533    1.80640333e+03
  1181.5000 0.14648732    1.80798316e+03
  1182.0000 0.14654932    1.81130467e+03
  1182.5000 0.14661131    1.81641873e+03
  1183.0000 0.14667330    1.82338801e+03
  1183.5000 0.14673529    1.83228623e+03
  1184.0000 0.14679729    1.84319754e+03
  1184.5000 0.14685928    1.85621663e+03
  1185.0000 0.14692127    1.87144947e+03
  1185.5000 0.14698326    1.88901476e+03
  1186.0000 0.14704525    1.90904570e+03
  1186.5000 0.14710725    1.93169221e+03
  1187.0000 0.14716924    1.95712331e+03
  1187.5000 0.14723123    1.98552979e+03
  1188.0000 0.14729322    2.01712724e+03
  1188.5000 0.14735521    2.05215942e+03
  1189.0000 0.14741721    2.09090212e+03
  1189.5000 0.14747920    2.13366767e+03
  1190.0000 0.14754119    2.18081006e+03
  1190.5000 0.14760318    2.23273097e+03
  1191.0000 0.14766517    2.28988680e+03
  1191.5000 0.14772717    2.35279688e+03
  1192.0000 0.14778916    2.42205301e+03
  1192.5000 0.14785115    2.49833076e+03
  1193.0000 0.14791314    2.58240262e+03
  1193.5000 0.14797514    2.67515338e+03
  1194.0000 0.14803713    2.77759815e+03
  1194.5000 0.14809912    2.89090342e+03
  1195.0000 0.14816111    3.01641138e+03
  1195.5000 0.14822310    3.15566813e+03
  1196.0000 0.14828510    3.31045581e+03
  1196.5000 0.14834709    3.48282881e+03
  1197.0000 0.14840908    3.67515369e+03
  1197.5000 0.14847107    3.89015162e+03
  1198.0000 0.14853306    4.13094094e+03
  1198.5000 0.14859506    4.40107534e+03
  1199.0000 0.14865705    4.70456977e+03
  1199.5000 0.14871904    5.04590093e+03
  1200.0000 0.14878103    5.42996109e+03
  1200.5000 0.14884302    5.86193256e+03
  1201.0000 0.14890502    6.34703363e+03
  1201.5000 0.14896701    6.89006630e+03
  1202.0000 0.14902900    7.49467379e+03
  1202.5000 0.14909099    8.16219978e+03
  1203.0000 0.14915299    8.89005164e+03
  1203.5000 0.14921498    9.66954147e+03
  1204.0000 0.14927697    1.04833637e+04
  1204.5000 0.14933896    1.13032138e+04
  1205.0000 0.14940095    1.20885406e+04
  1205.5000 0.14946295    1.27878559e+04
  1206.0000 0.14952494    1.33439551e+04
  1206.5000 0.14958693    1.37032953e+04
  1207.0000 0.14964892    1.38276056e+04
  1207.5000 0.14971091    1.37036675e+04
  1208.0000 0.14977291    1.33469612e+04
  1208.5000 0.14983490    1.27974146e+04
  1209.0000 0.14989689    1.21093039e+04
  1209.5000 0.14995888    1.13396934e+04
  1210.0000 0.15002087    1.05393517e+04
  1210.5000 0.15008287    9.74787673e+03
  1211.0000 0.15014486    8.99264604e+03
  1211.5000 0.15020685    8.29020411e+03
  1212.0000 0.15026884    7.64868437e+03
  1212.5000 0.15033083    7.07031553e+03
  1213.0000 0.15039283    6.55354138e+03
  1213.5000 0.15045482    6.09461542e+03
  1214.0000 0.15051681    5.68870586e+03
  1214.5000 0.15057880    5.33061120e+03
  1215.0000 0.15064080    5.01519362e+03
  1215.5000 0.15070279    4.73762063e+03
  1216.0000 0.15076478    4.49348290e+03
  1216.5000 0.15082677    4.27883575e+03
  1217.0000 0.15088876    4.09019627e+03
  1217.5000 0.15095076    3.92451616e+03
  1218.0000 0.15101275    3.77914326e+03
  1218.5000 0.15107474    3.65177910e+03
  1219.0000 0.15113673    3.54043690e+03
  1219.5000 0.15119872    3.44340228e+03
  1220.0000 0.15126072    3.35919778e+03
  1220.5000 0.15132271    3.28655140e+03
  1221.0000 0.15138470    3.22436929e+03
  1221.5000 0.15144669    3.17171215e+03
  1222.0000 0.15150868    3.12777502e+03
  1222.5000 0.15157068    3.09187009e+03
  1223.0000 0.15163267    3.06341205e+03
  1223.5000 0.15169466    3.04190549e+03
  1224.0000 0.15175665    3.02693410e+03
  1224.5000 0.15181865    3.01815105e+03
  1225.0000 0.15188064    3.01527005e+03
  1225.5000 0.15194263    3.01805651e+03
  1226.0000 0.15200462    3.02631804e+03
  1226.5000 0.15206661    3.03989337e+03
  1227.0000 0.15212861    3.05863882e+03
  1227.5000 0.15219060    3.08241155e+03
  1228.0000 0.15225259    3.11104953e+03
  1228.5000 0.15231458    3.14434975e+03
  1229.0000 0.15237657    3.18204863e+03
  1229.5000 0.15243857    3.22381229e+03
  1230.0000 0.15250056    3.26924721e+03
  1230.5000 0.15256255    3.31794154e+03
  1231.0000 0.15262454    3.36953888e+03
  1231.5000 0.15268653    3.42383032e+03
  1232.0000 0.15274853    3.48083257e+03
  1232.5000 0.15281052    3.54081690e+03
  1233.0000 0.15287251    3.60427205e+03
  1233.5000 0.15293450    3.67181506e+03
  1234.0000 0.15299650    3.74408465e+03
  1234.5000 0.15305849    3.82165015e+03
  1235.0000 0.15312048    3.90495320e+03
  1235.5000 0.15318247    3.99428404e+03
  1236.0000 0.15324446    4.08978897e+03
  1236.5000 0.15330646    4.19150733e+03
  1237.0000 0.15336845    4.29943832e+03
  1237.5000 0.15343044    4.41363257e+03
  1238.0000 0.15349243    4.53429013e+03
  1238.5000 0.15355442    4.66183516e+03
  1239.0000 0.15361642    4.79694096e+03
  1239.5000 0.15367841    4.94049967e+03
  1240.0000 0.15374040    5.09355683e+03
  1240.5000 0.15380239    5.25724271e+03
  1241.0000 0.15386438    5.43272557e+03
  1241.5000 0.15392638    5.62119553e+03
  1242.0000 0.15398837    5.82387467e+03
  1242.5000 0.15405036    6.04204355e+03
  1243.0000 0.15411235    6.27707558e+03
  1243.5000 0.15417434    6.53047366e+03
  1244.0000 0.15423634    6.80390710e+03
  1244.5000 0.15429833    7.09924870e+03
  1245.0000 0.15436032    7.41861284e+03
  1245.5000 0.15442231    7.76439615e+03
  1246.0000 0.15448431    8.13932196e+03
  1246.5000 0.15454630    8.54648988e+03
  1247.0000 0.15460829    8.98943132e+03
  1247.5000 0.15467028    9.47217157e+03
  1248.0000 0.15473227    9.99929822e+03
  1248.5000 0.15479427    1.05760347e+04
  1249.0000 0.15485626    1.12083159e+04
  1249.5000 0.15491825    1.19028596e+04
  1250.0000 0.15498024    1.26672232e+04
  1250.5000 0.15504223    1.35098286e+04
  1251.0000 0.15510423    1.44399241e+04
  1251.5000 0.15516622    1.54674411e+04
  1252.0000 0.15522821    1.66026780e+04
  1252.5000 0.15529020    1.78557180e+04
  1253.0000 0.15535219    1.92354622e+04
  1253.5000 0.15541419    2.07481443e+04
  1254.0000 0.15547618    2.23952219e+04
  1254.5000 0.15553817    2.41706635e+04
  1255.0000 0.15560016    2.60579272e+04
  1255.5000 0.15566216    2.80274211e+04
  1256.0000 0.15572415    3.00358533e+04
  1256.5000 0.15578614    3.20293144e+04
  1257.0000 0.15584813    3.39515392e+04
  1257.5000 0.15591012    3.57570076e+04
  1258.0000 0.15597212    3.74256474e+04
  1258.5000 0.15603411    3.89736768e+04
  1259.0000 0.15609610    4.04557833e+04
  1259.5000 0.15615809    4.19577350e+04
  1260.0000 0.15622008    4.35830324e+04
  1260.5000 0.15628208    4.54391434e+04
  1261.0000 0.15634407    4.76274050e+04
  1261.5000 0.15640606    5.02376696e+04
  1262.0000 0.15646805    5.33463562e+04
  1262.5000 0.15653004    5.70155407e+04
  1263.0000 0.15659204    6.12907461e+04
  1263.5000 0.15665403    6.61955184e+04
  1264.0000 0.15671602    7.17213898e+04
  1264.5000 0.15677801    7.78125294e+04
  1265.0000 0.15684001    8.43456892e+04
  1265.5000 0.15690200    9.11085122e+04
  1266.0000 0.15696399    9.77831356e+04
  1266.5000 0.15702598    1.03946396e+05
  1267.0000 0.15708797    1.09099864e+05
  1267.5000 0.15714997    1.12737602e+05
  1268.0000 0.15721196    1.14443876e+05
  1268.5000 0.15727395    1.13992098e+05
  1269.0000 0.15733594    1.11404798e+05
  1269.5000 0.15739793    1.06946414e+05
  1270.0000 0.15745993    1.01052412e+05
  1270.5000 0.15752192    9.42273771e+04
  1271.0000 0.15758391    8.69515873e+04
  1271.5000 0.15764590    7.96208344e+04
  1272.0000 0.15770789    7.25234027e+04
  1272.5000 0.15776989    6.58445089e+04
  1273.0000 0.15783188    5.96850228e+04
  1273.5000 0.15789387    5.40840785e+04
  1274.0000 0.15795586    4.90396437e+04
  1274.5000 0.15801785    4.45247117e+04
  1275.0000 0.15807985    4.04989005e+04
  1275.5000 0.15814184    3.69161806e+04
  1276.0000 0.15820383    3.37296951e+04
  1276.5000 0.15826582    3.08945522e+04
  1277.0000 0.15832782    2.83692783e+04
  1277.5000 0.15838981    2.61164308e+04
  1278.0000 0.15845180    2.41027052e+04
  1278.5000 0.15851379    2.22987627e+04
  1279.0000 0.15857578    2.06789148e+04
  1279.5000 0.15863778    1.92207566e+04
  1280.0000 0.15869977    1.79047958e+04
  1280.5000 0.15876176    1.67141071e+04
  1281.0000 0.15882375    1.56340180e+04
  1281.5000 0.15888574    1.46518237e+04
  1282.0000 0.15894774    1.37565247e+04
  1282.5000 0.15900973    1.29385845e+04
  1283.0000 0.15907172    1.21897101e+04
  1283.5000 0.15913371    1.15026612e+04
  1284.0000 0.15919570    1.08710901e+04
  1284.5000 0.15925770    1.02894104e+04
  1285.0000 0.15931969    9.75269064e+03
  1285.5000 0.15938168    9.25656682e+03
  1286.0000 0.15944367    8.79716952e+03
  1286.5000 0.15950567    8.37106172e+03
  1287.0000 0.15956766    7.97518545e+03
  1287.5000 0.15962965    7.60681543e+03
  1288.0000 0.15969164    7.26351880e+03
  1288.5000 0.15975363    6.94311995e+03
  1289.0000 0.15981563    6.64366992e+03
  1289.5000 0.15987762    6.36341972e+03
  1290.0000 0.15993961    6.10079700e+03
  1290.5000 0.16000160    5.85438578e+03
  1291.0000 0.16006359    5.62290875e+03
  1291.5000 0.16012559    5.40521175e+03
  1292.0000 0.16018758    5.20025026e+03
  1292.5000 0.16024957    5.00707757e+03
  1293.0000 0.16031156    4.82483437e+03
  1293.5000 0.16037355    4.65273963e+03
  1294.0000 0.16043555    4.49008265e+03
  1294.5000 0.16049754    4.33621597e+03
  1295.0000 0.16055953    4.19054922e+03
  1295.5000 0.16062152    4.05254366e+03
  1296.0000 0.16068352    3.92170737e+03
  1296.5000 0.16074551    3.79759107e+03
  1297.0000 0.16080750    3.67978444e+03
  1297.5000 0.16086949    3.56791283e+03
  1298.0000 0.16093148    3.46163453e+03
  1298.5000 0.16099348    3.36063828e+03
  1299.0000 0.16105547    3.26464121e+03
  1299.5000 0.16111746    3.17338710e+03
  1300.0000 0.16117945    3.08664493e+03
  1300.5000 0.16124144    3.00420771e+03
  1301.0000 0.16130344    2.92589160e+03
  1301.5000 0.16136543    2.85153530e+03
  1302.0000 0.16142742    2.78099958e+03
  1302.5000 0.16148941    2.71416711e+03
  1303.0000 0.16155140    2.65094230e+03
  1303.5000 0.16161340    2.59125122e+03
  1304.0000 0.16167539    2.53504124e+03
  1304.5000 0.16173738    2.48228021e+03
  1305.0000 0.16179937    2.43295463e+03
  1305.5000 0.16186136    2.38706603e+03
  1306.0000 0.16192336    2.34462452e+03
  1306.5000 0.16198535    2.30563792e+03
  1307.0000 0.16204734    2.27009449e+03
  1307.5000 0.16210933    2.23793713e+03
  1308.0000 0.16217133    2.20902735e+03
  1308.5000 0.16223332    2.18309933e+03
  1309.0000 0.16229531    2.15970923e+03
  1309.5000 0.16235730    2.13819262e+03
  1310.0000 0.16241929    2.11765337e+03
  1310.5000 0.16248129    2.09701348e+03
  1311.0000 0.16254328    2.07514681e+03
  1311.5000 0.16260527    2.05108910e+03
  1312.0000 0.16266726    2.02427013e+03
  1312.5000 0.16272925    1.99467885e+03
  1313.0000 0.16279125    1.96288522e+03
  1313.5000 0.16285324    1.92990698e+03
  1314.0000 0.16291523    1.89698192e+03
  1314.5000 0.16297722    1.86533474e+03
  1315.0000 0.16303921    1.83600322e+03
  1315.5000 0.16310121    1.80974006e+03
  1316.0000 0.16316320    1.78697061e+03
  1316.5000 0.16322519    1.76777460e+03
  1317.0000 0.16328718    1.75186788e+03
  1317.5000 0.16334918    1.73857735e+03
  1318.0000 0.16341117    1.72682382e+03
  1318.5000 0.16347316    1.71514746e+03
  1319.0000 0.16353515    1.70182000e+03
  1319.5000 0.16359714    1.68507282e+03
  1320.0000 0.16365914    1.66342017e+03
  1320.5000 0.16372113    1.63598791e+03
  1321.0000 0.16378312    1.60271820e+03
  1321.5000 0.16384511    1.56435598e+03
  1322.0000 0.16390710    1.52222449e+03
  1322.5000 0.16396910    1.47789406e+03
  1323.0000 0.16403109    1.43287376e+03
  1323.5000 0.16409308    1.38840953e+03
  1324.0000 0.16415507    1.34540394e+03
  1324.5000 0.16421706    1.30442721e+03
  1325.0000 0.16427906    1.26577646e+03
  1325.5000 0.16434105    1.22954876e+03
  1326.0000 0.16440304    1.19570819e+03
  1326.5000 0.16446503    1.16413871e+03
  1327.0000 0.16452703    1.13468220e+03
  1327.5000 0.16458902    1.10716376e+03
  1328.0000 0.16465101    1.08140743e+03
  1328.5000 0.16471300    1.05724531e+03
  1329.0000 0.16477499    1.03452221e+03
  1329.5000 0.16483699    1.01309756e+03
  1330.0000 0.16489898    9.92845679e+02
  1330.5000 0.16496097    9.73655130e+02
  1331.0000 0.16502296    9.55427556e+02
  1331.5000 0.16508495    9.38076393e+02
  1332.0000 0.16514695    9.21525520e+02
  1332.5000 0.16520894    9.05707987e+02
  1333.0000 0.16527093    8.90564849e+02
  1333.5000 0.16533292    8.76044119e+02
  1334.0000 0.16539491    8.62099849e+02
  1334.5000 0.16545691    8.48691335e+02
  1335.0000 0.16551890    8.35782421e+02
  1335.5000 0.16558089    8.23340905e+02
  1336.0000 0.16564288    8.11338029e+02
  1336.5000 0.16570487    7.99748043e+02
  1337.0000 0.16576687    7.88547826e+02
  1337.5000 0.16582886    7.77716564e+02
  1338.0000 0.16589085    7.67235482e+02
  1338.5000 0.16595284    7.57087596e+02
  1339.0000 0.16601484    7.47257522e+02
  1339.5000 0.16607683    7.37731290e+02
  1340.0000 0.16613882    7.28496203e+02
  1340.5000 0.16620081    7.19540701e+02
  1341.0000 0.16626280    7.10854253e+02
  1341.5000 0.16632480    7.02427258e+02
  1342.0000 0.16638679    6.94250965e+02
  1342.5000 0.16644878    6.86317397e+02
  1343.0000 0.16651077    6.78619294e+02
  1343.5000 0.16657276    6.71150055e+02
  1344.0000 0.16663476    6.63903698e+02
  1344.5000 0.16669675    6.56874815e+02
  1345.0000 0.16675874    6.50058547e+02
  1345.5000 0.16682073    6.43450551e+02
  1346.0000 0.16688272    6.37046979e+02
  1346.5000 0.16694472    6.30844465e+02
  1347.0000 0.16700671    6.24840105e+02
  1347.5000 0.16706870    6.19031453e+02
  1348.0000 0.16713069    6.13416513e+02
  1348.5000 0.16719269    6.07993737e+02
  1349.0000 0.16725468    6.02762031e+02
  1349.5000 0.16731667    5.97720756e+02
  1350.0000 0.16737866    5.92869740e+02
  1350.5000 0.16744065    5.88209292e+02
  1351.0000 0.16750265    5.83740218e+02
  1351.5000 0.16756464    5.79463846e+02
  1352.0000 0.16762663    5.75382049e+02
  1352.5000 0.16768862    5.71497279e+02
  1353.0000 0.16775061    5.67812608e+02
  1353.5000 0.16781261    5.64331765e+02
  1354.0000 0.16787460    5.61059194e+02
  1354.5000 0.16793659    5.58000108e+02
  1355.0000 0.16799858    5.55160561e+02
  1355.5000 0.16806057    5.52547521e+02
  1356.0000 0.16812257    5.50168963e+02
  1356.5000 0.16818456    5.48033973e+02
  1357.0000 0.16824655    5.46152861e+02
  1357.5000 0.16830854    5.44537297e+02
  1358.0000 0.16837054    5.43200468e+02
  1358.5000 0.16843253    5.42157255e+02
  1359.0000 0.16849452    5.41424438e+02
  1359.5000 0.16855651    5.41020928e+02
  1360.0000 0.16861850    5.40968047e+02
  1360.5000 0.16868050    5.41289835e+02
  1361.0000 0.16874249    5.42013416e+02
  1361.5000 0.16880448    5.43169426e+02
  1362.0000 0.16886647    5.44792494e+02
  1362.5000 0.16892846    5.46921822e+02
  1363.0000 0.16899046    5.49601843e+02
  1363.5000 0.16905245    5.52883001e+02
  1364.0000 0.16911444    5.56822652e+02
  1364.5000 0.16917643    5.61486129e+02
  1365.0000 0.16923842    5.66947971e+02
  1365.5000 0.16930042    5.73293372e+02
  1366.0000 0.16936241    5.80619861e+02
  1366.5000 0.16942440    5.89039265e+02
  1367.0000 0.16948639    5.98679970e+02
  1367.5000 0.16954838    6.09689531e+02
  1368.0000 0.16961038    6.22237639e+02
  1368.5000 0.16967237    6.36519440e+02
  1369.0000 0.16973436    6.52759167e+02
  1369.5000 0.16979635    6.71213967e+02
  1370.0000 0.16985835    6.92177662e+02
  1370.5000 0.16992034    7.15984011e+02
  1371.0000 0.16998233    7.43008693e+02
  1371.5000 0.17004432    7.73668740e+02
  1372.0000 0.17010631    8.08417435e+02
  1372.5000 0.17016831    8.47731618e+02
  1373.0000 0.17023030    8.92087054e+02
  1373.5000 0.17029229    9.41915909e+02
  1374.0000 0.17035428    9.97539152e+02
  1374.5000 0.17041627    1.05906673e+03
  1375.0000 0.17047827    1.12626191e+03
  1375.5000 0.17054026    1.19837634e+03
  1376.0000 0.17060225    1.27398244e+03
  1376.5000 0.17066424    1.35085969e+03
  1377.0000 0.17072623    1.42602034e+03
  1377.5000 0.17078823    1.49596206e+03
  1378.0000 0.17085022    1.55717443e+03
  1378.5000 0.17091221    1.60679367e+03
  1379.0000 0.17097420    1.64315673e+03
  1379.5000 0.17103620    1.66597422e+03
  1380.0000 0.17109819    1.67600063e+03
  1380.5000 0.17116018    1.67435538e+03
  1381.0000 0.17122217    1.66184960e+03
  1381.5000 0.17128416    1.63866540e+03
  1382.0000 0.17134616    1.60453383e+03
  1382.5000 0.17140815    1.55928786e+03
  1383.0000 0.17147014    1.50347105e+03
  1383.5000 0.17153213    1.43866961e+03
  1384.0000 0.17159412    1.36741317e+03
  1384.5000 0.17165612    1.29273648e+03
  1385.0000 0.17171811    1.21764050e+03
  1385.5000 0.17178010    1.14467022e+03
  1386.0000 0.17184209    1.07570494e+03
  1386.5000 0.17190408    1.01194109e+03
  1387.0000 0.17196608    9.53994029e+02
  1387.5000 0.17202807    9.02045602e+02
  1388.0000 0.17209006    8.55988884e+02
  1388.5000 0.17215205    8.15547177e+02
  1389.0000 0.17221405    7.80361735e+02
  1389.5000 0.17227604    7.50051454e+02
  1390.0000 0.17233803    7.24250818e+02
  1390.5000 0.17240002    7.02632393e+02
  1391.0000 0.17246201    6.84918988e+02
  1391.5000 0.17252401    6.70889203e+02
  1392.0000 0.17258600    6.60378772e+02
  1392.5000 0.17264799    6.53279054e+02
  1393.0000 0.17270998    6.49533135e+02
  1393.5000 0.17277197    6.49129186e+02
  1394.0000 0.17283397    6.52089916e+02
  1394.5000 0.17289596    6.58456036e+02
  1395.0000 0.17295795    6.68260735e+02
  1395.5000 0.17301994    6.81491194e+02
  1396.0000 0.17308193    6.98032951e+02
  1396.5000 0.17314393    7.17594109e+02
  1397.0000 0.17320592    7.39610986e+02
  1397.5000 0.17326791    7.63146799e+02
  1398.0000 0.17332990    7.86811430e+02
  1398.5000 0.17339189    8.08750015e+02
  1399.0000 0.17345389    8.26758617e+02
  1399.5000 0.17351588    8.38565942e+02
  1400.0000 0.17357787    8.42255379e+02
  1400.5000 0.17363986    8.36708959e+02
  1401.0000 0.17370186    8.21896577e+02
  1401.5000 0.17376385    7.98875540e+02
  1402.0000 0.17382584    7.69500415e+02
  1402.5000 0.17388783    7.35978107e+02
  1403.0000 0.17394982    7.00444811e+02
  1403.5000 0.17401182    6.64683200e+02
  1404.0000 0.17407381    6.30005541e+02
  1404.5000 0.17413580    5.97263777e+02
  1405.0000 0.17419779    5.66928249e+02
  1405.5000 0.17425978    5.39187307e+02
  1406.0000 0.17432178    5.14039720e+02
  1406.5000 0.17438377    4.91368243e+02
  1407.0000 0.17444576    4.70992753e+02
  1407.5000 0.17450775    4.52705872e+02
  1408.0000 0.17456974    4.36295337e+02
  1408.5000 0.17463174    4.21557057e+02
  1409.0000 0.17469373    4.08301999e+02
  1409.5000 0.17475572    3.96359183e+02
  1410.0000 0.17481771    3.85576325e+02
  1410.5000 0.17487971    3.75819163e+02
  1411.0000 0.17494170    3.66970089e+02
  1411.5000 0.17500369    3.58926508e+02
  1412.0000 0.17506568    3.51599119e+02
  1412.5000 0.17512767    3.44910280e+02
  1413.0000 0.17518967    3.38792487e+02
  1413.5000 0.17525166    3.33187030e+02
  1414.0000 0.17531365    3.28042791e+02
  1414.5000 0.17537564    3.23315209e+02
  1415.0000 0.17543763    3.18965384e+02
  1415.5000 0.17549963    3.14959303e+02
  1416.0000 0.17556162    3.11267180e+02
  1416.5000 0.17562361    3.07862889e+02
  1417.0000 0.17568560    3.04723485e+02
  1417.5000 0.17574759    3.01828786e+02
  1418.0000 0.17580959    2.99161023e+02
  1418.5000 0.17587158    2.96704534e+02
  1419.0000 0.17593357    2.94445512e+02
  1419.5000 0.17599556    2.92371776e+02
  1420.0000 0.17605756    2.90472588e+02
  1420.5000 0.17611955    2.88738483e+02
  1421.0000 0.17618154    2.87161132e+02
  1421.5000 0.17624353    2.85733220e+02
  1422.0000 0.17630552    2.84448343e+02
  1422.5000 0.17636752    2.83300919e+02
  1423.0000 0.17642951    2.82286106e+02
  1423.5000 0.17649150    2.81399741e+02
  1424.0000 0.17655349    2.80638282e+02
  1424.5000 0.17661548    2.79998757e+02
  1425.0000 0.17667748    2.79478722e+02
  1425.5000 0.17673947    2.79076232e+02
  1426.0000 0.17680146    2.78789801e+02
  1426.5000 0.17686345    2.78618389e+02
  1427.0000 0.17692544    2.78561371e+02
  1427.5000 0.17698744    2.78618530e+02
  1428.0000 0.17704943    2.78790039e+02
  1428.5000 0.17711142    2.79076456e+02
  1429.0000 0.17717341    2.79478717e+02
  1429.5000 0.17723540    2.79998133e+02
  1430.0000 0.17729740    2.80636396e+02
  1430.5000 0.17735939    2.81395575e+02
  1431.0000 0.17742138    2.82278132e+02
  1431.5000 0.17748337    2.83286925e+02
  1432.0000 0.17754537    2.84425223e+02
  1432.5000 0.17760736    2.85696725e+02
  1433.0000 0.17766935    2.87105579e+02
  1433.5000 0.17773134    2.88656400e+02
  1434.0000 0.17779333    2.90354304e+02
  1434.5000 0.17785533    2.92204937e+02
  1435.0000 0.17791732    2.94214509e+02
  1435.5000 0.17797931    2.96389835e+02
  1436.0000 0.17804130    2.98738382e+02
  1436.5000 0.17810329    3.01268322e+02
  1437.0000 0.17816529    3.03988588e+02
  1437.5000 0.17822728    3.06908944e+02
  1438.0000 0.17828927    3.10040054e+02
  1438.5000 0.17835126    3.13393575e+02
  1439.0000 0.17841325    3.16982243e+02
  1439.5000 0.17847525    3.20819986e+02
  1440.0000 0.17853724    3.24922047e+02
  1440.5000 0.17859923    3.29305115e+02
  1441.0000 0.17866122    3.33987489e+02
  1441.5000 0.17872322    3.38989249e+02
  1442.0000 0.17878521    3.44332461e+02
  1442.5000 0.17884720    3.50041405e+02
  1443.0000 0.17890919    3.56142838e+02
  1443.5000 0.17897118    3.62666294e+02
  1444.0000 0.17903318    3.69644425e+02
  1444.5000 0.17909517    3.77113397e+02
  1445.0000 0.17915716    3.85113344e+02
  1445.5000 0.17921915    3.93688886e+02
  1446.0000 0.17928114    4.02889728e+02
  1446.5000 0.17934314    4.12771358e+02
  1447.0000 0.17940513    4.23395839e+02
  1447.5000 0.17946712    4.34832731e+02
  1448.0000 0.17952911    4.47160145e+02
  1448.5000 0.17959110    4.60465961e+02
  1449.0000 0.17965310    4.74849205e+02
  1449.5000 0.17971509    4.90421612e+02
  1450.0000 0.17977708    5.07309375e+02
  1450.5000 0.17983907    5.25655044e+02
  1451.0000 0.17990107    5.45619557e+02
  1451.5000 0.17996306    5.67384271e+02
  1452.0000 0.18002505    5.91152829e+02
  1452.5000 0.18008704    6.17152533e+02
  1453.0000 0.18014903    6.45634733e+02
  1453.5000 0.18021103    6.76873444e+02
  1454.0000 0.18027302    7.11161111e+02
  1454.5000 0.18033501    7.48800030e+02
  1455.0000 0.18039700    7.90087765e+02
  1455.5000 0.18045899    8.35295085e+02
  1456.0000 0.18052099    8.84636284e+02
  1456.5000 0.18058298    9.38234973e+02
  1457.0000 0.18064497    9.96094312e+02
  1457.5000 0.18070696    1.05808864e+03
  1458.0000 0.18076895    1.12399995e+03
  1458.5000 0.18083095    1.19361978e+03
  1459.0000 0.18089294    1.26691663e+03
  1459.5000 0.18095493    1.34423148e+03
  1460.0000 0.18101692    1.42642959e+03
  1460.5000 0.18107891    1.51493535e+03
  1461.0000 0.18114091    1.61161974e+03
  1461.5000 0.18120290    1.71856824e+03
  1462.0000 0.18126489    1.83778635e+03
  1462.5000 0.18132688    1.97088409e+03
  1463.0000 0.18138888    2.11874096e+03
  1463.5000 0.18145087    2.28112443e+03
  1464.0000 0.18151286    2.45624052e+03
  1464.5000 0.18157485    2.64024267e+03
  1465.0000 0.18163684    2.82681483e+03
  1465.5000 0.18169884    3.00705713e+03
  1466.0000 0.18176083    3.16998213e+03
  1466.5000 0.18182282    3.30387015e+03
  1467.0000 0.18188481    3.39843576e+03
  1467.5000 0.18194680    3.44727147e+03
  1468.0000 0.18200880    3.44965242e+03
  1468.5000 0.18207079    3.41088690e+03
  1469.0000 0.18213278    3.34104904e+03
  1469.5000 0.18219477    3.25270043e+03
  1470.0000 0.18225676    3.15855046e+03
  1470.5000 0.18231876    3.06977817e+03
  1471.0000 0.18238075    2.99524552e+03
  1471.5000 0.18244274    2.94143819e+03
  1472.0000 0.18250473    2.91281864e+03
  1472.5000 0.18256673    2.91230651e+03
  1473.0000 0.18262872    2.94169850e+03
  1473.5000 0.18269071    3.00192745e+03
  1474.0000 0.18275270    3.09311419e+03
  1474.5000 0.18281469    3.21439102e+03
  1475.0000 0.18287669    3.36349157e+03
  1475.5000 0.18293868    3.53612980e+03
  1476.0000 0.18300067    3.72525378e+03
  1476.5000 0.18306266    3.92037395e+03
  1477.0000 0.18312465    4.10731610e+03
  1477.5000 0.18318665    4.26886029e+03
  1478.0000 0.18324864    4.38664437e+03
  1478.5000 0.18331063    4.44428575e+03
  1479.0000 0.18337262    4.43096204e+03
  1479.5000 0.18343461    4.34410890e+03
  1480.0000 0.18349661    4.19000821e+03
  1480.5000 0.18355860    3.98197615e+03
  1481.0000 0.18362059    3.73700906e+03
  1481.5000 0.18368258    3.47228602e+03
  1482.0000 0.18374458    3.20262192e+03
  1482.5000 0.18380657    2.93924256e+03
  1483.0000 0.18386856    2.68966308e+03
  1483.5000 0.18393055    2.45821767e+03
  1484.0000 0.18399254    2.24683133e+03
  1484.5000 0.18405454    2.05577446e+03
  1485.0000 0.18411653    1.88428200e+03
  1485.5000 0.18417852    1.73100957e+03
  1486.0000 0.18424051    1.59434440e+03
  1486.5000 0.18430250    1.47260354e+03
  1487.0000 0.18436450    1.36415166e+03
  1487.5000 0.18442649    1.26746493e+03
  1488.0000 0.18448848    1.18116050e+03
  1488.5000 0.18455047    1.10400495e+03
  1489.0000 0.18461246    1.03491083e+03
  1489.5000 0.18467446    9.72926743e+02
  1490.0000 0.18473645    9.17224720e+02
  1490.5000 0.18479844    8.67086732e+02
  1491.0000 0.18486043    8.21891645e+02
  1491.5000 0.18492242    7.81103174e+02
  1492.0000 0.18498442    7.44259106e+02
  1492.5000 0.18504641    7.10961866e+02
  1493.0000 0.18510840    6.80870392e+02
  1493.5000 0.18517039    6.53693229e+02
  1494.0000 0.18523239    6.29182724e+02
  1494.5000 0.18529438    6.07130208e+02
  1495.0000 0.18535637    5.87362028e+02
  1495.5000 0.18541836    5.69736321e+02
  1496.0000 0.18548035    5.54140396e+02
  1496.5000 0.18554235    5.40488567e+02
  1497.0000 0.18560434    5.28720263e+02
  1497.5000 0.18566633    5.18798145e+02
  1498.0000 0.18572832    5.10705873e+02
  1498.5000 0.18579031    5.04444972e+02
  1499.0000 0.18585231    5.00029995e+02
  1499.5000 0.18591430    4.97480861e+02
  1500.0000 0.18597629    4.96810802e+02
  1500.5000 0.18603828    4.98008025e+02
  1501.0000 0.18610027    5.01009058e+02
  1501.5000 0.18616227    5.05662489e+02
  1502.0000 0.18622426    5.11684110e+02
  1502.5000 0.18628625    5.18609455e+02
  1503.0000 0.18634824    5.25757746e+02
  1503.5000 0.18641024    5.32230459e+02
  1504.0000 0.18647223    5.36972000e+02
  1504.5000 0.18653422    5.38909273e+02
  1505.0000 0.18659621    5.37154704e+02
  1505.5000 0.18665820    5.31213472e+02
  1506.0000 0.18672020    5.21111049e+02
  1506.5000 0.18678219    5.07381142e+02
  1507.0000 0.18684418    4.90919853e+02
  1507.5000 0.18690617    4.72773399e+02
  1508.0000 0.18696816    4.53942121e+02
  1508.5000 0.18703016    4.35253325e+02
  1509.0000 0.18709215    4.17311914e+02
  1509.5000 0.18715414    4.00508919e+02
  1510.0000 0.18721613    3.85060368e+02
  1510.5000 0.18727812    3.71054632e+02
  1511.0000 0.18734012    3.58495652e+02
  1511.5000 0.18740211    3.47337037e+02
  1512.0000 0.18746410    3.37506458e+02
  1512.5000 0.18752609    3.28921744e+02
  1513.0000 0.18758809    3.21500587e+02
  1513.5000 0.18765008    3.15165467e+02
  1514.0000 0.18771207    3.09845027e+02
  1514.5000 0.18777406    3.05472526e+02
  1515.0000 0.18783605    3.01981683e+02
  1515.5000 0.18789805    2.99299938e+02
  1516.0000 0.18796004    2.97339240e+02
  1516.5000 0.18802203    2.95985043e+02
  1517.0000 0.18808402    2.95085401e+02
  1517.5000 0.18814601    2.94443960e+02
  1518.0000 0.18820801    2.93822522e+02
  1518.5000 0.18827000    2.92959035e+02
  1519.0000 0.18833199    2.91603091e+02
  1519.5000 0.18839398    2.89562606e+02
  1520.0000 0.18845597    2.86746084e+02
  1520.5000 0.18851797    2.83182139e+02
  1521.0000 0.18857996    2.79006740e+02
  1521.5000 0.18864195    2.74424213e+02
  1522.0000 0.18870394    2.69659222e+02
  1522.5000 0.18876593    2.64916898e+02
  1523.0000 0.18882793    2.60359812e+02
  1523.5000 0.18888992    2.56101344e+02
  1524.0000 0.18895191    2.52210086e+02
  1524.5000 0.18901390    2.48719332e+02
  1525.0000 0.18907590    2.45637413e+02
  1525.5000 0.18913789    2.42956654e+02
  1526.0000 0.18919988    2.40660216e+02
  1526.5000 0.18926187    2.38726887e+02
  1527.0000 0.18932386    2.37134211e+02
  1527.5000 0.18938586    2.35860400e+02
  1528.0000 0.18944785    2.34885411e+02
  1528.5000 0.18950984    2.34191480e+02
  1529.0000 0.18957183    2.33763334e+02
  1529.5000 0.18963382    2.33588195e+02
  1530.0000 0.18969582    2.33655693e+02
  1530.5000 0.18975781    2.33957722e+02
  1531.0000 0.18981980    2.34488290e+02
  1531.5000 0.18988179    2.35243369e+02
  1532.0000 0.18994378    2.36220766e+02
  1532.5000 0.19000578    2.37420017e+02
  1533.0000 0.19006777    2.38842303e+02
  1533.5000 0.19012976    2.40490392e+02
  1534.0000 0.19019175    2.42368605e+02
  1534.5000 0.19025375    2.44482811e+02
  1535.0000 0.19031574    2.46840439e+02
  1535.5000 0.19037773    2.49450511e+02
  1536.0000 0.19043972    2.52323703e+02
  1536.5000 0.19050171    2.55472409e+02
  1537.0000 0.19056371    2.58910830e+02
  1537.5000 0.19062570    2.62655060e+02
  1538.0000 0.19068769    2.66723170e+02
  1538.5000 0.19074968    2.71135276e+02
  1539.0000 0.19081167    2.75913566e+02
  1539.5000 0.19087367    2.81082289e+02
  1540.0000 0.19093566    2.86667666e+02
  1540.5000 0.19099765    2.92697784e+02
  1541.0000 0.19105964    2.99202514e+02
  1541.5000 0.19112163    3.06213641e+02
  1542.0000 0.19118363    3.13765465e+02
  1542.5000 0.19124562    3.21896159e+02
  1543.0000 0.19130761    3.30650087e+02
  1543.5000 0.19136960    3.40080853e+02
  1544.0000 0.19143160    3.50254461e+02
  1544.5000 0.19149359    3.61251665e+02
  1545.0000 0.19155558    3.73168929e+02
  1545.5000 0.19161757    3.86118094e+02
  1546.0000 0.19167956    4.00225431e+02
  1546.5000 0.19174156    4.15630867e+02
  1547.0000 0.19180355    4.32487713e+02
  1547.5000 0.19186554    4.50962659e+02
  1548.0000 0.19192753    4.71235333e+02
  1548.5000 0.19198952    4.93496432e+02
  1549.0000 0.19205152    5.17943166e+02
  1549.5000 0.19211351    5.44770568e+02
  1550.0000 0.19217550    5.74157054e+02
  1550.5000 0.19223749    6.06242907e+02
  1551.0000 0.19229948    6.41101523e+02
  1551.5000 0.19236148    6.78706195e+02
  1552.0000 0.19242347    7.18900514e+02
  1552.5000 0.19248546    7.61387799e+02
  1553.0000 0.19254745    8.05760997e+02
  1553.5000 0.19260944    8.51592504e+02
  1554.0000 0.19267144    8.98585441e+02
  1554.5000 0.19273343    9.46754929e+02
  1555.0000 0.19279542    9.96577252e+02
  1555.5000 0.19285741    1.04904420e+03
  1556.0000 0.19291941    1.10559973e+03
  1556.5000 0.19298140    1.16799157e+03
  1557.0000 0.19304339    1.23810061e+03
  1557.5000 0.19310538    1.31779996e+03
  1558.0000 0.19316737    1.40885954e+03
  1558.5000 0.19322937    1.51287935e+03
  1559.0000 0.19329136    1.63121762e+03
  1559.5000 0.19335335    1.76487810e+03
  1560.0000 0.19341534    1.91432495e+03
  1560.5000 0.19347733    2.07920205e+03
  1561.0000 0.19353933    2.25794375e+03
  1561.5000 0.19360132    2.44728685e+03
  1562.0000 0.19366331    2.64173958e+03
  1562.5000 0.19372530    2.83315139e+03
  1563.0000 0.19378729    3.01064747e+03
  1563.5000 0.19384929    3.16127826e+03
  1564.0000 0.19391128    3.27164827e+03
  1564.5000 0.19397327    3.33041528e+03
  1565.0000 0.19403526    3.33097908e+03
  1565.5000 0.19409726    3.27328952e+03
  1566.0000 0.19415925    3.16391936e+03
  1566.5000 0.19422124    3.01435518e+03
  1567.0000 0.19428323    2.83830140e+03
  1567.5000 0.19434522    2.64907889e+03
  1568.0000 0.19440722    2.45786326e+03
  1568.5000 0.19446921    2.27294124e+03
  1569.0000 0.19453120    2.09975650e+03
  1569.5000 0.19459319    1.94138812e+03
  1570.0000 0.19465518    1.79916516e+03
  1570.5000 0.19471718    1.67324067e+03
  1571.0000 0.19477917    1.56305103e+03
  1571.5000 0.19484116    1.46764926e+03
  1572.0000 0.19490315    1.38593014e+03
  1572.5000 0.19496514    1.31677293e+03
  1573.0000 0.19502714    1.25912664e+03
  1573.5000 0.19508913    1.21205717e+03
  1574.0000 0.19515112    1.17477062e+03
  1574.5000 0.19521311    1.14662272e+03
  1575.0000 0.19527511    1.12712064e+03
  1575.5000 0.19533710    1.11592147e+03
  1576.0000 0.19539909    1.11282983e+03
  1576.5000 0.19546108    1.11779606e+03
  1577.0000 0.19552307    1.13091584e+03
  1577.5000 0.19558507    1.15243137e+03
  1578.0000 0.19564706    1.18273382e+03
  1578.5000 0.19570905    1.22236626e+03
  1579.0000 0.19577104    1.27202530e+03
  1579.5000 0.19583303    1.33255878e+03
  1580.0000 0.19589503    1.40495490e+03
  1580.5000 0.19595702    1.49031576e+03
  1581.0000 0.19601901    1.58980469e+03
  1581.5000 0.19608100    1.70455183e+03
  1582.0000 0.19614299    1.83549699e+03
  1582.5000 0.19620499    1.98314378e+03
  1583.0000 0.19626698    2.14719786e+03
  1583.5000 0.19632897    2.32607309e+03
  1584.0000 0.19639096    2.51628234e+03
  1584.5000 0.19645296    2.71180002e+03
  1585.0000 0.19651495    2.90359453e+03
  1585.5000 0.19657694    3.07965316e+03
  1586.0000 0.19663893    3.22587172e+03
  1586.5000 0.19670092    3.32801938e+03
  1587.0000 0.19676292    3.37453444e+03
  1587.5000 0.19682491    3.35931265e+03
  1588.0000 0.19688690    3.28334565e+03
  1588.5000 0.19694889    3.15443644e+03
  1589.0000 0.19701088    2.98513073e+03
  1589.5000 0.19707288    2.78981312e+03
  1590.0000 0.19713487    2.58208319e+03
  1590.5000 0.19719686    2.37309091e+03
  1591.0000 0.19725885    2.17092157e+03
  1591.5000 0.19732084    1.98074582e+03
  1592.0000 0.19738284    1.80536111e+03
  1592.5000 0.19744483    1.64583441e+03
  1593.0000 0.19750682    1.50208256e+03
  1593.5000 0.19756881    1.37332706e+03
  1594.0000 0.19763080    1.25841893e+03
  1594.5000 0.19769280    1.15605461e+03
  1595.0000 0.19775479    1.06491036e+03
  1595.5000 0.19781678    9.83719943e+02
  1596.0000 0.19787877    9.11315008e+02
  1596.5000 0.19794077    8.46641970e+02
  1597.0000 0.19800276    7.88764940e+02
  1597.5000 0.19806475    7.36860806e+02
  1598.0000 0.19812674    6.90210328e+02
  1598.5000 0.19818873    6.48187638e+02
  1599.0000 0.19825073    6.10249469e+02
  1599.5000 0.19831272    5.75924901e+02
  1600.0000 0.19837471    5.44805971e+02
  1600.5000 0.19843670    5.16539308e+02
  1601.0000 0.19849869    4.90818803e+02
  1601.5000 0.19856069    4.67379267e+02
  1602.0000 0.19862268    4.45990994e+02
  1602.5000 0.19868467    4.26455125e+02
  1603.0000 0.19874666    4.08599720e+02
  1603.5000 0.19880865    3.92276444e+02
  1604.0000 0.19887065    3.77357766e+02
  1604.5000 0.19893264    3.63734599e+02
  1605.0000 0.19899463    3.51314280e+02
  1605.5000 0.19905662    3.40018804e+02
  1606.0000 0.19911862    3.29783192e+02
  1606.5000 0.19918061    3.20553854e+02
  1607.0000 0.19924260    3.12286755e+02
  1607.5000 0.19930459    3.04945127e+02
  1608.0000 0.19936658    2.98496390e+02
  1608.5000 0.19942858    2.92907889e+02
  1609.0000 0.19949057    2.88141038e+02
  1609.5000 0.19955256    2.84143644e+02
  1610.0000 0.19961455    2.80840663e+02
  1610.5000 0.19967654    2.78124654e+02
  1611.0000 0.19973854    2.75848670e+02
  1611.5000 0.19980053    2.73825782e+02
  1612.0000 0.19986252    2.71839612e+02
  1612.5000 0.19992451    2.69667418e+02
  1613.0000 0.19998650    2.67111128e+02
  1613.5000 0.20004850    2.64025340e+02
  1614.0000 0.20011049    2.60330551e+02
  1614.5000 0.20017248    2.56007753e+02
  1615.0000 0.20023447    2.51082207e+02
  1615.5000 0.20029647    2.45609594e+02
  1616.0000 0.20035846    2.39672086e+02
  1616.5000 0.20042045    2.33380834e+02
  1617.0000 0.20048244    2.26875201e+02
  1617.5000 0.20054443    2.20312456e+02
  1618.0000 0.20060643    2.13849901e+02
  1618.5000 0.20066842    2.07626745e+02
  1619.0000 0.20073041    2.01752189e+02
  1619.5000 0.20079240    1.96301859e+02
  1620.0000 0.20085439    1.91320943e+02
  1620.5000 0.20091639    1.86830900e+02
  1621.0000 0.20097838    1.82837019e+02
  1621.5000 0.20104037    1.79335175e+02
  1622.0000 0.20110236    1.76317147e+02
  1622.5000 0.20116435    1.73774430e+02
  1623.0000 0.20122635    1.71700768e+02
  1623.5000 0.20128834    1.70093691e+02
  1624.0000 0.20135033    1.68955259e+02
  1624.5000 0.20141232    1.68292143e+02
  1625.0000 0.20147431    1.68115036e+02
  1625.5000 0.20153631    1.68437306e+02
  1626.0000 0.20159830    1.69272673e+02
  1626.5000 0.20166029    1.70631725e+02
  1627.0000 0.20172228    1.72517132e+02
  1627.5000 0.20178428    1.74917815e+02
  1628.0000 0.20184627    1.77802986e+02
  1628.5000 0.20190826    1.81117983e+02
  1629.0000 0.20197025    1.84784694e+02
  1629.5000 0.20203224    1.88709144e+02
  1630.0000 0.20209424    1.92796263e+02
  1630.5000 0.20215623    1.96966877e+02
  1631.0000 0.20221822    2.01167029e+02
  1631.5000 0.20228021    2.05359318e+02
  1632.0000 0.20234220    2.09492744e+02
  1632.5000 0.20240420    2.13458964e+02
  1633.0000 0.20246619    2.17052534e+02
  1633.5000 0.20252818    2.19956131e+02
  1634.0000 0.20259017    2.21767354e+02
  1634.5000 0.20265216    2.22071133e+02
  1635.0000 0.20271416    2.20541746e+02
  1635.5000 0.20277615    2.17038689e+02
  1636.0000 0.20283814    2.11655502e+02
  1636.5000 0.20290013    2.04699765e+02
  1637.0000 0.20296213    1.96615994e+02
  1637.5000 0.20302412    1.87887540e+02
  1638.0000 0.20308611    1.78954095e+02
  1638.5000 0.20314810    1.70163784e+02
  1639.0000 0.20321009    1.61759465e+02
  1639.5000 0.20327209    1.53888177e+02
  1640.0000 0.20333408    1.46621317e+02
  1640.5000 0.20339607    1.39976580e+02
  1641.0000 0.20345806    1.33936989e+02
  1641.5000 0.20352005    1.28465418e+02
  1642.0000 0.20358205    1.23514751e+02
  1642.5000 0.20364404    1.19034510e+02
  1643.0000 0.20370603    1.14974885e+02
  1643.5000 0.20376802    1.11288982e+02
  1644.0000 0.20383001    1.07933930e+02
  1644.5000 0.20389201    1.04871261e+02
  1645.0000 0.20395400    1.02066883e+02
  1645.5000 0.20401599    9.94908187e+01
  1646.0000 0.20407798    9.71168422e+01
  1646.5000 0.20413998    9.49220733e+01
  1647.0000 0.20420197    9.28865781e+01
  1647.5000 0.20426396    9.09929937e+01
  1648.0000 0.20432595    8.92261880e+01
  1648.5000 0.20438794    8.75729580e+01
  1649.0000 0.20444994    8.60217652e+01
  1649.5000 0.20451193    8.45625068e+01
  1650.0000 0.20457392    8.31863177e+01
  1650.5000 0.20463591    8.18854012e+01
  1651.0000 0.20469790    8.06528836e+01
  1651.5000 0.20475990    7.94826899e+01
  1652.0000 0.20482189    7.83694373e+01
  1652.5000 0.20488388    7.73083444e+01
  1653.0000 0.20494587    7.62951531e+01
  1653.5000 0.20500786    7.53260616e+01
  1654.0000 0.20506986    7.43976674e+01
  1654.5000 0.20513185    7.35069174e+01
  1655.0000 0.20519384    7.26510659e+01
  1655.5000 0.20525583    7.18276372e+01
  1656.0000 0.20531782    7.10343944e+01
  1656.5000 0.20537982    7.02693112e+01
  1657.0000 0.20544181    6.95305485e+01
  1657.5000 0.20550380    6.88164331e+01
  1658.0000 0.20556579    6.81254399e+01
  1658.5000 0.20562779    6.74561754e+01
  1659.0000 0.20568978    6.68073642e+01
  1659.5000 0.20575177    6.61778366e+01
  1660.0000 0.20581376    6.55665176e+01
  1660.5000 0.20587575    6.49724178e+01
  1661.0000 0.20593775    6.43946244e+01
  1661.5000 0.20599974    6.38322945e+01
  1662.0000 0.20606173    6.32846477e+01
  1662.5000 0.20612372    6.27509606e+01
  1663.0000 0.20618571    6.22305618e+01
  1663.5000 0.20624771    6.17228267e+01
  1664.0000 0.20630970    6.12271736e+01
  1664.5000 0.20637169    6.07430602e+01
  1665.0000 0.20643368    6.02699796e+01
  1665.5000 0.20649567    5.98074581e+01
  1666.0000 0.20655767    5.93550516e+01
  1666.5000 0.20661966    5.89123439e+01
  1667.0000 0.20668165    5.84789442e+01
  1667.5000 0.20674364    5.80544849e+01
  1668.0000 0.20680564    5.76386200e+01
  1668.5000 0.20686763    5.72310237e+01
  1669.0000 0.20692962    5.68313883e+01
  1669.5000 0.20699161    5.64394234e+01
  1670.0000 0.20705360    5.60548543e+01
  1670.5000 0.20711560    5.56774210e+01
  1671.0000 0.20717759    5.53068773e+01
  1671.5000 0.20723958    5.49429897e+01
  1672.0000 0.20730157    5.45855364e+01
  1672.5000 0.20736356    5.42343069e+01
  1673.0000 0.20742556    5.38891008e+01
  1673.5000 0.20748755    5.35497276e+01
  1674.0000 0.20754954    5.32160057e+01
  1674.5000 0.20761153    5.28877619e+01
  1675.0000 0.20767352    5.25648312e+01
  1675.5000 0.20773552    5.22470558e+01
  1676.0000 0.20779751    5.19342850e+01
  1676.5000 0.20785950    5.16263749e+01
  1677.0000 0.20792149    5.13231875e+01
  1677.5000 0.20798349    5.10245908e+01
  1678.0000 0.20804548    5.07304584e+01
  1678.5000 0.20810747    5.04406689e+01
  1679.0000 0.20816946    5.01551061e+01
  1679.5000 0.20823145    4.98736583e+01
  1680.0000 0.20829345    4.95962181e+01
  1680.5000 0.20835544    4.93226825e+01
  1681.0000 0.20841743    4.90529523e+01
  1681.5000 0.20847942    4.87869321e+01
  1682.0000 0.20854141    4.85245301e+01
  1682.5000 0.20860341    4.82656578e+01
  1683.0000 0.20866540    4.80102300e+01
  1683.5000 0.20872739    4.77581646e+01
  1684.0000 0.20878938    4.75093821e+01
  1684.5000 0.20885137    4.72638063e+01
  1685.0000 0.20891337    4.70213631e+01
  1685.5000 0.20897536    4.67819813e+01
  1686.0000 0.20903735    4.65455919e+01
  1686.5000 0.20909934    4.63121283e+01
  1687.0000 0.20916133    4.60815261e+01
  1687.5000 0.20922333    4.58537230e+01
  1688.0000 0.20928532    4.56286584e+01
  1688.5000 0.20934731    4.54062742e+01
  1689.0000 0.20940930    4.51865136e+01
  1689.5000 0.20947130    4.49693218e+01
  1690.0000 0.20953329    4.47546458e+01
  1690.5000 0.20959528    4.45424339e+01
  1691.0000 0.20965727    4.43326362e+01
  1691.5000 0.20971926    4.41252042e+01
  1692.0000 0.20978126    4.39200908e+01
  1692.5000 0.20984325    4.37172504e+01
  1693.0000 0.20990524    4.35166386e+01
  1693.5000 0.20996723    4.33182122e+01
  1694.0000 0.21002922    4.31219294e+01
  1694.5000 0.21009122    4.29277495e+01
  1695.0000 0.21015321    4.27356329e+01
  1695.5000 0.21021520    4.25455412e+01
  1696.0000 0.21027719    4.23574367e+01
  1696.5000 0.21033918    4.21712832e+01
  1697.0000 0.21040118    4.19870452e+01
  1697.5000 0.21046317    4.18046881e+01
  1698.0000 0.21052516    4.16241783e+01
  1698.5000 0.21058715    4.14454831e+01
  1699.0000 0.21064915    4.12685705e+01
  1699.5000 0.21071114    4.10934095e+01
  1700.0000 0.21077313    4.09199698e+01
  1700.5000 0.21083512    4.07482219e+01
  1701.0000 0.21089711    4.05781369e+01
  1701.5000 0.21095911    4.04096868e+01
  1702.0000 0.21102110    4.02428441e+01
  1702.5000 0.21108309    4.00775821e+01
  1703.0000 0.21114508    3.99138748e+01
  1703.5000 0.21120707    3.97516966e+01
  1704.0000 0.21126907    3.95910227e+01
  1704.5000 0.21133106    3.94318288e+01
  1705.0000 0.21139305    3.92740912e+01
  1705.5000 0.21145504    3.91177867e+01
  1706.0000 0.21151703    3.89628927e+01
  1706.5000 0.21157903    3.88093871e+01
  1707.0000 0.21164102    3.86572482e+01
  1707.5000 0.21170301    3.85064550e+01
  1708.0000 0.21176500    3.83569868e+01
  1708.5000 0.21182700    3.82088233e+01
  1709.0000 0.21188899    3.80619449e+01
  1709.5000 0.21195098    3.79163322e+01
  1710.0000 0.21201297    3.77719663e+01
  1710.5000 0.21207496    3.76288287e+01
  1711.0000 0.21213696    3.74869013e+01
  1711.5000 0.21219895    3.73461663e+01
  1712.0000 0.21226094    3.72066065e+01
  1712.5000 0.21232293    3.70682049e+01
  1713.0000 0.21238492    3.69309448e+01
  1713.5000 0.21244692    3.67948100e+01
  1714.0000 0.21250891    3.66597844e+01
  1714.5000 0.21257090    3.65258526e+01
  1715.0000 0.21263289    3.63929991e+01
  1715.5000 0.21269488    3.62612090e+01
  1716.0000 0.21275688    3.61304676e+01
  1716.5000 0.21281887    3.60007604e+01
  1717.0000 0.21288086    3.58720734e+01
  1717.5000 0.21294285    3.57443928e+01
  1718.0000 0.21300484    3.56177048e+01
  1718.5000 0.21306684    3.54919964e+01
  1719.0000 0.21312883    3.53672542e+01
  1719.5000 0.21319082    3.52434657e+01
  1720.0000 0.21325281    3.51206182e+01
  1720.5000 0.21331481    3.49986994e+01
  1721.0000 0.21337680    3.48776972e+01
  1721.5000 0.21343879    3.47575998e+01
  1722.0000 0.21350078    3.46383955e+01
  1722.5000 0.21356277    3.45200729e+01
  1723.0000 0.21362477    3.44026207e+01
  1723.5000 0.21368676    3.42860280e+01
  1724.0000 0.21374875    3.41702840e+01
  1724.5000 0.21381074    3.40553780e+01
  1725.0000 0.21387273    3.39412996e+01
  1725.5000 0.21393473    3.38280386e+01
  1726.0000 0.21399672    3.37155850e+01
  1726.5000 0.21405871    3.36039288e+01
  1727.0000 0.21412070    3.34930603e+01
  1727.5000 0.21418269    3.33829701e+01
  1728.0000 0.21424469    3.32736487e+01
  1728.5000 0.21430668    3.31650869e+01
  1729.0000 0.21436867    3.30572758e+01
  1729.5000 0.21443066    3.29502063e+01
  1730.0000 0.21449266    3.28438698e+01
  1730.5000 0.21455465    3.27382578e+01
  1731.0000 0.21461664    3.26333616e+01
  1731.5000 0.21467863    3.25291731e+01
  1732.0000 0.21474062    3.24256840e+01
  1732.5000 0.21480262    3.23228864e+01
  1733.0000 0.21486461    3.22207723e+01
  1733.5000 0.21492660    3.21193339e+01
  1734.0000 0.21498859    3.20185637e+01
  1734.5000 0.21505058    3.19184541e+01
  1735.0000 0.21511258    3.18189978e+01
  1735.5000 0.21517457    3.17201873e+01
  1736.0000 0.21523656    3.16220157e+01
  1736.5000 0.21529855    3.15244758e+01
  1737.0000 0.21536054    3.14275607e+01
  1737.5000 0.21542254    3.13312636e+01
  1738.0000 0.21548453    3.12355777e+01
  1738.5000 0.21554652    3.11404965e+01
  1739.0000 0.21560851    3.10460135e+01
  1739.5000 0.21567051    3.09521222e+01
  1740.0000 0.21573250    3.08588164e+01
  1740.5000 0.21579449    3.07660898e+01
  1741.0000 0.21585648    3.06739363e+01
  1741.5000 0.21591847    3.05823499e+01
  1742.0000 0.21598047    3.04913246e+01
  1742.5000 0.21604246    3.04008547e+01
  1743.0000 0.21610445    3.03109344e+01
  1743.5000 0.21616644    3.02215579e+01
  1744.0000 0.21622843    3.01327198e+01
  1744.5000 0.21629043    3.00444145e+01
  1745.0000 0.21635242    2.99566365e+01
  1745.5000 0.21641441    2.98693807e+01
  1746.0000 0.21647640    2.97826416e+01
  1746.5000 0.21653839    2.96964141e+01
  1747.0000 0.21660039    2.96106931e+01
  1747.5000 0.21666238    2.95254736e+01
  1748.0000 0.21672437    2.94407506e+01
  1748.5000 0.21678636    2.93565192e+01
  1749.0000 0.21684835    2.92727746e+01
  1749.5000 0.21691035    2.91895120e+01
  1750.0000 0.21697234    2.91067267e+01
  1750.5000 0.21703433    2.90244142e+01
  1751.0000 0.21709632    2.89425698e+01
  1751.5000 0.21715832    2.88611890e+01
  1752.0000 0.21722031    2.87802675e+01
  1752.5000 0.21728230    2.86998009e+01
  1753.0000 0.21734429    2.86197848e+01
  1753.5000 0.21740628    2.85402150e+01
  1754.0000 0.21746828    2.84610873e+01
  1754.5000 0.21753027    2.83823976e+01
  1755.0000 0.21759226    2.83041418e+01
  1755.5000 0.21765425    2.82263158e+01
  1756.0000 0.21771624    2.81489157e+01
  1756.5000 0.21777824    2.80719376e+01
  1757.0000 0.21784023    2.79953776e+01
  1757.5000 0.21790222    2.79192319e+01
  1758.0000 0.21796421    2.78434967e+01
  1758.5000 0.21802620    2.77681684e+01
  1759.0000 0.21808820    2.76932431e+01
  1759.5000 0.21815019    2.76187174e+01
  1760.0000 0.21821218    2.75445877e+01
  1760.5000 0.21827417    2.74708504e+01
  1761.0000 0.21833617    2.73975020e+01
  1761.5000 0.21839816    2.73245392e+01
  1762.0000 0.21846015    2.72519585e+01
  1762.5000 0.21852214    2.71797565e+01
  1763.0000 0.21858413    2.71079300e+01
  1763.5000 0.21864613    2.70364758e+01
  1764.0000 0.21870812    2.69653905e+01
  1764.5000 0.21877011    2.68946710e+01
  1765.0000 0.21883210    2.68243142e+01
  1765.5000 0.21889409    2.67543169e+01
  1766.0000 0.21895609    2.66846761e+01
  1766.5000 0.21901808    2.66153888e+01
  1767.0000 0.21908007    2.65464520e+01
  1767.5000 0.21914206    2.64778626e+01
  1768.0000 0.21920405    2.64096179e+01
  1768.5000 0.21926605    2.63417149e+01
  1769.0000 0.21932804    2.62741508e+01
  1769.5000 0.21939003    2.62069227e+01
  1770.0000 0.21945202    2.61400279e+01
  1770.5000 0.21951402    2.60734637e+01
  1771.0000 0.21957601    2.60072273e+01
  1771.5000 0.21963800    2.59413160e+01
  1772.0000 0.21969999    2.58757272e+01
  1772.5000 0.21976198    2.58104583e+01
  1773.0000 0.21982398    2.57455067e+01
  1773.5000 0.21988597    2.56808698e+01
  1774.0000 0.21994796    2.56165452e+01
  1774.5000 0.22000995    2.55525303e+01
  1775.0000 0.22007194    2.54888226e+01
  1775.5000 0.22013394    2.54254197e+01
  1776.0000 0.22019593    2.53623192e+01
  1776.5000 0.22025792    2.52995187e+01
  1777.0000 0.22031991    2.52370159e+01
  1777.5000 0.22038190    2.51748084e+01
  1778.0000 0.22044390    2.51128940e+01
  1778.5000 0.22050589    2.50512703e+01
  1779.0000 0.22056788    2.49899351e+01
  1779.5000 0.22062987    2.49288861e+01
  1780.0000 0.22069186    2.48681212e+01
  1780.5000 0.22075386    2.48076383e+01
  1781.0000 0.22081585    2.47474350e+01
  1781.5000 0.22087784    2.46875094e+01
  1782.0000 0.22093983    2.46278593e+01
  1782.5000 0.22100183    2.45684826e+01
  1783.0000 0.22106382    2.45093773e+01
  1783.5000 0.22112581    2.44505413e+01
  1784.0000 0.22118780    2.43919727e+01
  1784.5000 0.22124979    2.43336693e+01
  1785.0000 0.22131179    2.42756293e+01
  1785.5000 0.22137378    2.42178507e+01
  1786.0000 0.22143577    2.41603316e+01
  1786.5000 0.22149776    2.41030701e+01
  1787.0000 0.22155975    2.40460643e+01
  1787.5000 0.22162175    2.39893122e+01
  1788.0000 0.22168374    2.39328121e+01
  1788.5000 0.22174573    2.38765622e+01
  1789.0000 0.22180772    2.38205606e+01
  1789.5000 0.22186971    2.37648055e+01
  1790.0000 0.22193171    2.37092952e+01
  1790.5000 0.22199370    2.36540279e+01
  1791.0000 0.22205569    2.35990019e+01
  1791.5000 0.22211768    2.35442155e+01
  1792.0000 0.22217968    2.34896669e+01
  1792.5000 0.22224167    2.34353545e+01
  1793.0000 0.22230366    2.33812767e+01
  1793.5000 0.22236565    2.33274317e+01
  1794.0000 0.22242764    2.32738179e+01
  1794.5000 0.22248964    2.32204338e+01
  1795.0000 0.22255163    2.31672777e+01
  1795.5000 0.22261362    2.31143481e+01
  1796.0000 0.22267561    2.30616433e+01
  1796.5000 0.22273760    2.30091619e+01
  1797.0000 0.22279960    2.29569022e+01
  1797.5000 0.22286159    2.29048629e+01
  1798.0000 0.22292358    2.28530423e+01
  1798.5000 0.22298557    2.28014391e+01
  1799.0000 0.22304756    2.27500516e+01
  1799.5000 0.22310956    2.26988785e+01
  1800.0000 0.22317155    2.26479183e+01
  1800.5000 0.22323354    2.25971696e+01
  1801.0000 0.22329553    2.25466310e+01
  1801.5000 0.22335753    2.24963010e+01
  1802.0000 0.22341952    2.24461783e+01
  1802.5000 0.22348151    2.23962614e+01
  1803.0000 0.22354350    2.23465491e+01
  1803.5000 0.22360549    2.22970400e+01
  1804.0000 0.22366749    2.22477327e+01
  1804.5000 0.22372948    2.21986260e+01
  1805.0000 0.22379147    2.21497184e+01
  1805.5000 0.22385346    2.21010088e+01
  1806.0000 0.22391545    2.20524958e+01
  1806.5000 0.22397745    2.20041781e+01
  1807.0000 0.22403944    2.19560545e+01
  1807.5000 0.22410143    2.19081237e+01
  1808.0000 0.22416342    2.18603845e+01
  1808.5000 0.22422541    2.18128357e+01
  1809.0000 0.22428741    2.17654761e+01
  1809.5000 0.22434940    2.17183043e+01
  1810.0000 0.22441139    2.16713194e+01
  1810.5000 0.22447338    2.16245199e+01
  1811.0000 0.22453537    2.15779049e+01
  1811.5000 0.22459737    2.15314731e+01
  1812.0000 0.22465936    2.14852234e+01
  1812.5000 0.22472135    2.14391547e+01
  1813.0000 0.22478334    2.13932657e+01
  1813.5000 0.22484534    2.13475554e+01
  1814.0000 0.22490733    2.13020227e+01
  1814.5000 0.22496932    2.12566665e+01
  1815.0000 0.22503131    2.12114857e+01
  1815.5000 0.22509330    2.11664792e+01
  1816.0000 0.22515530    2.11216459e+01
  1816.5000 0.22521729    2.10769849e+01
  1817.0000 0.22527928    2.10324949e+01
  1817.5000 0.22534127    2.09881750e+01
  1818.0000 0.22540326    2.09440242e+01
  1818.5000 0.22546526    2.09000414e+01
  1819.0000 0.22552725    2.08562256e+01
  1819.5000 0.22558924    2.08125758e+01
  1820.0000 0.22565123    2.07690911e+01
  1820.5000 0.22571322    2.07257703e+01
  1821.0000 0.22577522    2.06826126e+01
  1821.5000 0.22583721    2.06396170e+01
  1822.0000 0.22589920    2.05967825e+01
  1822.5000 0.22596119    2.05541081e+01
  1823.0000 0.22602319    2.05115929e+01
  1823.5000 0.22608518    2.04692360e+01
  1824.0000 0.22614717    2.04270364e+01
  1824.5000 0.22620916    2.03849932e+01
  1825.0000 0.22627115    2.03431056e+01
  1825.5000 0.22633315    2.03013725e+01
  1826.0000 0.22639514    2.02597931e+01
  1826.5000 0.22645713    2.02183665e+01
  1827.0000 0.22651912    2.01770918e+01
  1827.5000 0.22658111    2.01359682e+01
  1828.0000 0.22664311    2.00949947e+01
  1828.5000 0.22670510    2.00541705e+01
  1829.0000 0.22676709    2.00134948e+01
  1829.5000 0.22682908    1.99729666e+01
  1830.0000 0.22689107    1.99325853e+01
  1830.5000 0.22695307    1.98923498e+01
  1831.0000 0.22701506    1.98522595e+01
  1831.5000 0.22707705    1.98123134e+01
  1832.0000 0.22713904    1.97725108e+01
  1832.5000 0.22720104    1.97328508e+01
  1833.0000 0.22726303    1.96933327e+01
  1833.5000 0.22732502    1.96539556e+01
  1834.0000 0.22738701    1.96147188e+01
  1834.5000 0.22744900    1.95756215e+01
  1835.0000 0.22751100    1.95366629e+01
  1835.5000 0.22757299    1.94978423e+01
  1836.0000 0.22763498    1.94591588e+01
  1836.5000 0.22769697    1.94206118e+01
  1837.0000 0.22775896    1.93822004e+01
  1837.5000 0.22782096    1.93439240e+01
  1838.0000 0.22788295    1.93057817e+01
  1838.5000 0.22794494    1.92677729e+01
  1839.0000 0.22800693    1.92298968e+01
  1839.5000 0.22806892    1.91921528e+01
  1840.0000 0.22813092    1.91545400e+01
  1840.5000 0.22819291    1.91170578e+01
  1841.0000 0.22825490    1.90797055e+01
  1841.5000 0.22831689    1.90424823e+01
  1842.0000 0.22837888    1.90053876e+01
  1842.5000 0.22844088    1.89684207e+01
  1843.0000 0.22850287    1.89315810e+01
  1843.5000 0.22856486    1.88948676e+01
  1844.0000 0.22862685    1.88582800e+01
  1844.5000 0.22868885    1.88218175e+01
  1845.0000 0.22875084    1.87854795e+01
  1845.5000 0.22881283    1.87492652e+01
  1846.0000 0.22887482    1.87131740e+01
  1846.5000 0.22893681    1.86772052e+01
  1847.0000 0.22899881    1.86413583e+01
  1847.5000 0.22906080    1.86056326e+01
  1848.0000 0.22912279    1.85700275e+01
  1848.5000 0.22918478    1.85345422e+01
  1849.0000 0.22924677    1.84991763e+01
  1849.5000 0.22930877    1.84639291e+01
  1850.0000 0.22937076    1.84287999e+01
  1850.5000 0.22943275    1.83937882e+01
  1851.0000 0.22949474    1.83588933e+01
  1851.5000 0.22955673    1.83241147e+01
  1852.0000 0.22961873    1.82894517e+01
  1852.5000 0.22968072    1.82549038e+01
  1853.0000 0.22974271    1.82204704e+01
  1853.5000 0.22980470    1.81861509e+01
  1854.0000 0.22986670    1.81519447e+01
  1854.5000 0.22992869    1.81178512e+01
  1855.0000 0.22999068    1.80838699e+01
  1855.5000 0.23005267    1.80500002e+01
  1856.0000 0.23011466    1.80162415e+01
  1856.5000 0.23017666    1.79825933e+01
  1857.0000 0.23023865    1.79490550e+01
  1857.5000 0.23030064    1.79156261e+01
  1858.0000 0.23036263    1.78823061e+01
  1858.5000 0.23042462    1.78490943e+01
  1859.0000 0.23048662    1.78159903e+01
  1859.5000 0.23054861    1.77829934e+01
  1860.0000 0.23061060    1.77501033e+01
  1860.5000 0.23067259    1.77173193e+01
  1861.0000 0.23073458    1.76846410e+01
  1861.5000 0.23079658    1.76520677e+01
  1862.0000 0.23085857    1.76195991e+01
  1862.5000 0.23092056    1.75872345e+01
  1863.0000 0.23098255    1.75549735e+01
  1863.5000 0.23104455    1.75228156e+01
  1864.0000 0.23110654    1.74907602e+01
  1864.5000 0.23116853    1.74588069e+01
  1865.0000 0.23123052    1.74269552e+01
  1865.5000 0.23129251    1.73952046e+01
  1866.0000 0.23135451    1.73635545e+01
  1866.5000 0.23141650    1.73320046e+01
  1867.0000 0.23147849    1.73005542e+01
  1867.5000 0.23154048    1.72692031e+01
  1868.0000 0.23160247    1.72379506e+01
  1868.5000 0.23166447    1.72067963e+01
  1869.0000 0.23172646    1.71757397e+01
  1869.5000 0.23178845    1.71447804e+01
  1870.0000 0.23185044    1.71139179e+01
  1870.5000 0.23191243    1.70831518e+01
  1871.0000 0.23197443    1.70524815e+01
  1871.5000 0.23203642    1.70219067e+01
  1872.0000 0.23209841    1.69914269e+01
  1872.5000 0.23216040    1.69610416e+01
  1873.0000 0.23222239    1.69307504e+01
  1873.5000 0.23228439    1.69005529e+01
  1874.0000 0.23234638    1.68704486e+01
  1874.5000 0.23240837    1.68404370e+01
  1875.0000 0.23247036    1.68105179e+01
  1875.5000 0.23253236    1.67806906e+01
  1876.0000 0.23259435    1.67509549e+01
  1876.5000 0.23265634    1.67213102e+01
  1877.0000 0.23271833    1.66917562e+01
  1877.5000 0.23278032    1.66622924e+01
  1878.0000 0.23284232    1.66329184e+01
  1878.5000 0.23290431    1.66036338e+01
  1879.0000 0.23296630    1.65744383e+01
  1879.5000 0.23302829    1.65453313e+01
  1880.0000 0.23309028    1.65163125e+01
  1880.5000 0.23315228    1.64873815e+01
  1881.0000 0.23321427    1.64585379e+01
  1881.5000 0.23327626    1.64297813e+01
  1882.0000 0.23333825    1.64011112e+01
  1882.5000 0.23340024    1.63725274e+01
  1883.0000 0.23346224    1.63440294e+01
  1883.5000 0.23352423    1.63156168e+01
  1884.0000 0.23358622    1.62872892e+01
  1884.5000 0.23364821    1.62590464e+01
  1885.0000 0.23371021    1.62308877e+01
  1885.5000 0.23377220    1.62028131e+01
  1886.0000 0.23383419    1.61748219e+01
  1886.5000 0.23389618    1.61469139e+01
  1887.0000 0.23395817    1.61190887e+01
  1887.5000 0.23402017    1.60913459e+01
  1888.0000 0.23408216    1.60636851e+01
  1888.5000 0.23414415    1.60361061e+01
  1889.0000 0.23420614    1.60086084e+01
  1889.5000 0.23426813    1.59811917e+01
  1890.0000 0.23433013    1.59538555e+01
  1890.5000 0.23439212    1.59265997e+01
  1891.0000 0.23445411    1.58994238e+01
  1891.5000 0.23451610    1.58723274e+01
  1892.0000 0.23457809    1.58453103e+01
  1892.5000 0.23464009    1.58183720e+01
  1893.0000 0.23470208    1.57915122e+01
  1893.5000 0.23476407    1.57647307e+01
  1894.0000 0.23482606    1.57380270e+01
  1894.5000 0.23488806    1.57114008e+01
  1895.0000 0.23495005    1.56848518e+01
  1895.5000 0.23501204    1.56583796e+01
  1896.0000 0.23507403    1.56319840e+01
  1896.5000 0.23513602    1.56056645e+01
  1897.0000 0.23519802    1.55794209e+01
  1897.5000 0.23526001    1.55532529e+01
  1898.0000 0.23532200    1.55271600e+01
  1898.5000 0.23538399    1.55011421e+01
  1899.0000 0.23544598    1.54751987e+01
  1899.5000 0.23550798    1.54493296e+01
  1900.0000 0.23556997    1.54235344e+01
  1900.5000 0.23563196    1.53978128e+01
  1901.0000 0.23569395    1.53721646e+01
  1901.5000 0.23575594    1.53465894e+01
  1902.0000 0.23581794    1.53210869e+01
  1902.5000 0.23587993    1.52956568e+01
  1903.0000 0.23594192    1.52702987e+01
  1903.5000 0.23600391    1.52450125e+01
  1904.0000 0.23606590    1.52197977e+01
  1904.5000 0.23612790    1.51946542e+01
  1905.0000 0.23618989    1.51695815e+01
  1905.5000 0.23625188    1.51445795e+01
  1906.0000 0.23631387    1.51196477e+01
  1906.5000 0.23637587    1.50947860e+01
  1907.0000 0.23643786    1.50699940e+01
  1907.5000 0.23649985    1.50452714e+01
  1908.0000 0.23656184    1.50206180e+01
  1908.5000 0.23662383    1.49960334e+01
  1909.0000 0.23668583    1.49715174e+01
  1909.5000 0.23674782    1.49470698e+01
  1910.0000 0.23680981    1.49226901e+01
  1910.5000 0.23687180    1.48983782e+01
  1911.0000 0.23693379    1.48741338e+01
  1911.5000 0.23699579    1.48499565e+01
  1912.0000 0.23705778    1.48258462e+01
  1912.5000 0.23711977    1.48018025e+01
  1913.0000 0.23718176    1.47778252e+01
  1913.5000 0.23724375    1.47539140e+01
  1914.0000 0.23730575    1.47300687e+01
  1914.5000 0.23736774    1.47062889e+01
  1915.0000 0.23742973    1.46825744e+01
  1915.5000 0.23749172    1.46589250e+01
  1916.0000 0.23755372    1.46353403e+01
  1916.5000 0.23761571    1.46118202e+01
  1917.0000 0.23767770    1.45883644e+01
  1917.5000 0.23773969    1.45649726e+01
  1918.0000 0.23780168    1.45416445e+01
  1918.5000 0.23786368    1.45183799e+01
  1919.0000 0.23792567    1.44951786e+01
  1919.5000 0.23798766    1.44720402e+01
  1920.0000 0.23804965    1.44489647e+01
  1920.5000 0.23811164    1.44259516e+01
  1921.0000 0.23817364    1.44030007e+01
  1921.5000 0.23823563    1.43801119e+01
  1922.0000 0.23829762    1.43572848e+01
  1922.5000 0.23835961    1.43345193e+01
  1923.0000 0.23842160    1.43118150e+01
  1923.5000 0.23848360    1.42891718e+01
  1924.0000 0.23854559    1.42665894e+01
  1924.5000 0.23860758    1.42440675e+01
  1925.0000 0.23866957    1.42216060e+01
  1925.5000 0.23873157    1.41992045e+01
  1926.0000 0.23879356    1.41768629e+01
  1926.5000 0.23885555    1.41545809e+01
  1927.0000 0.23891754    1.41323584e+01
  1927.5000 0.23897953    1.41101949e+01
  1928.0000 0.23904153    1.40880904e+01
  1928.5000 0.23910352    1.40660447e+01
  1929.0000 0.23916551    1.40440574e+01
  1929.5000 0.23922750    1.40221283e+01
  1930.0000 0.23928949    1.40002573e+01
  1930.5000 0.23935149    1.39784441e+01
  1931.0000 0.23941348    1.39566885e+01
  1931.5000 0.23947547    1.39349902e+01
  1932.0000 0.23953746    1.39133491e+01
  1932.5000 0.23959945    1.38917649e+01
  1933.0000 0.23966145    1.38702375e+01
  1933.5000 0.23972344    1.38487665e+01
  1934.0000 0.23978543    1.38273518e+01
  1934.5000 0.23984742    1.38059932e+01
  1935.0000 0.23990941    1.37846904e+01
  1935.5000 0.23997141    1.37634433e+01
  1936.0000 0.24003340    1.37422516e+01
  1936.5000 0.24009539    1.37211152e+01
  1937.0000 0.24015738    1.37000337e+01
  1937.5000 0.24021938    1.36790071e+01
  1938.0000 0.24028137    1.36580351e+01
  1938.5000 0.24034336    1.36371175e+01
  1939.0000 0.24040535    1.36162541e+01
  1939.5000 0.24046734    1.35954447e+01
  1940.0000 0.24052934    1.35746891e+01
  1940.5000 0.24059133    1.35539870e+01
  1941.0000 0.24065332    1.35333384e+01
  1941.5000 0.24071531    1.35127430e+01
  1942.0000 0.24077730    1.34922005e+01
  1942.5000 0.24083930    1.34717109e+01
  1943.0000 0.24090129    1.34512739e+01
  1943.5000 0.24096328    1.34308893e+01
  1944.0000 0.24102527    1.34105569e+01
  1944.5000 0.24108726    1.33902766e+01
  1945.0000 0.24114926    1.33700481e+01
  1945.5000 0.24121125    1.33498712e+01
  1946.0000 0.24127324    1.33297458e+01
  1946.5000 0.24133523    1.33096717e+01
  1947.0000 0.24139723    1.32896486e+01
  1947.5000 0.24145922    1.32696765e+01
  1948.0000 0.24152121    1.32497551e+01
  1948.5000 0.24158320    1.32298842e+01
  1949.0000 0.24164519    1.32100636e+01
  1949.5000 0.24170719    1.31902932e+01
  1950.0000 0.24176918    1.31705728e+01
  1950.5000 0.24183117    1.31509021e+01
  1951.0000 0.24189316    1.31312811e+01
  1951.5000 0.24195515    1.31117096e+01
  1952.0000 0.24201715    1.30921873e+01
  1952.5000 0.24207914    1.30727141e+01
  1953.0000 0.24214113    1.30532898e+01
  1953.5000 0.24220312    1.30339142e+01
  1954.0000 0.24226511    1.30145872e+01
  1954.5000 0.24232711    1.29953085e+01
  1955.0000 0.24238910    1.29760781e+01
  1955.5000 0.24245109    1.29568957e+01
  1956.0000 0.24251308    1.29377612e+01
  1956.5000 0.24257508    1.29186744e+01
  1957.0000 0.24263707    1.28996352e+01
  1957.5000 0.24269906    1.28806432e+01
  1958.0000 0.24276105    1.28616985e+01
  1958.5000 0.24282304    1.28428008e+01
  1959.0000 0.24288504    1.28239500e+01
  1959.5000 0.24294703    1.28051459e+01
  1960.0000 0.24300902    1.27863882e+01
  1960.5000 0.24307101    1.27676770e+01
  1961.0000 0.24313300    1.27490120e+01
  1961.5000 0.24319500    1.27303930e+01
  1962.0000 0.24325699    1.27118199e+01
  1962.5000 0.24331898    1.26932925e+01
  1963.0000 0.24338097    1.26748106e+01
  1963.5000 0.24344296    1.26563742e+01
  1964.0000 0.24350496    1.26379830e+01
  1964.5000 0.24356695    1.26196369e+01
  1965.0000 0.24362894    1.26013358e+01
  1965.5000 0.24369093    1.25830794e+01
  1966.0000 0.24375292    1.25648676e+01
  1966.5000 0.24381492    1.25467003e+01
  1967.0000 0.24387691    1.25285773e+01
  1967.5000 0.24393890    1.25104985e+01
  1968.0000 0.24400089    1.24924636e+01
  1968.5000 0.24406289    1.24744726e+01
  1969.0000 0.24412488    1.24565254e+01
  1969.5000 0.24418687    1.24386216e+01
  1970.0000 0.24424886    1.24207613e+01
  1970.5000 0.24431085    1.24029442e+01
  1971.0000 0.24437285    1.23851703e+01
  1971.5000 0.24443484    1.23674393e+01
  1972.0000 0.24449683    1.23497511e+01
  1972.5000 0.24455882    1.23321056e+01
  1973.0000 0.24462081    1.23145026e+01
  1973.5000 0.24468281    1.22969420e+01
  1974.0000 0.24474480    1.22794236e+01
  1974.5000 0.24480679    1.22619473e+01
  1975.0000 0.24486878    1.22445130e+01
  1975.5000 0.24493077    1.22271205e+01
  1976.0000 0.24499277    1.22097696e+01
  1976.5000 0.24505476    1.21924603e+01
  1977.0000 0.24511675    1.21751923e+01
  1977.5000 0.24517874    1.21579656e+01
  1978.0000 0.24524074    1.21407800e+01
  1978.5000 0.24530273    1.21236354e+01
  1979.0000 0.24536472    1.21065316e+01
  1979.5000 0.24542671    1.20894685e+01
  1980.0000 0.24548870    1.20724460e+01
  1980.5000 0.24555070    1.20554639e+01
  1981.0000 0.24561269    1.20385220e+01
  1981.5000 0.24567468    1.20216204e+01
  1982.0000 0.24573667    1.20047587e+01
  1982.5000 0.24579866    1.19879370e+01
  1983.0000 0.24586066    1.19711550e+01
  1983.5000 0.24592265    1.19544127e+01
  1984.0000 0.24598464    1.19377098e+01
  1984.5000 0.24604663    1.19210463e+01
  1985.0000 0.24610862    1.19044220e+01
  1985.5000 0.24617062    1.18878369e+01
  1986.0000 0.24623261    1.18712907e+01
  1986.5000 0.24629460    1.18547834e+01
  1987.0000 0.24635659    1.18383148e+01
  1987.5000 0.24641859    1.18218848e+01
  1988.0000 0.24648058    1.18054933e+01
  1988.5000 0.24654257    1.17891401e+01
  1989.0000 0.24660456    1.17728251e+01
  1989.5000 0.24666655    1.17565482e+01
  1990.0000 0.24672855    1.17403093e+01
  1990.5000 0.24679054    1.17241082e+01
  1991.0000 0.24685253    1.17079449e+01
  1991.5000 0.24691452    1.16918191e+01
  1992.0000 0.24697651    1.16757309e+01
  1992.5000 0.24703851    1.16596800e+01
  1993.0000 0.24710050    1.16436663e+01
  1993.5000 0.24716249    1.16276898e+01
  1994.0000 0.24722448    1.16117502e+01
  1994.5000 0.24728647    1.15958475e+01
  1995.0000 0.24734847    1.15799816e+01
  1995.5000 0.24741046    1.15641523e+01
  1996.0000 0.24747245    1.15483596e+01
  1996.5000 0.24753444    1.15326033e+01
  1997.0000 0.24759643    1.15168832e+01
  1997.5000 0.24765843    1.15011993e+01
  1998.0000 0.24772042    1.14855515e+01
  1998.5000 0.24778241    1.14699396e+01
  1999.0000 0.24784440    1.14543636e+01
  1999.5000 0.24790640    1.14388232e+01
  2000.0000 0.24796839    1.14233185e+01
