# 
# Calculated Spectral Density
# Lineshape: lor
# Linewidths (cm^-1): 5.0 
# 
# E (cm^-1)     E (eV)  Spectral Density (cm^-1)
# 
     0.0000 0.00000000    1.12121167e+01
     0.5000 0.00006199    1.12872833e+01
     1.0000 0.00012398    1.13645421e+01
     1.5000 0.00018598    1.14439913e+01
     2.0000 0.00024797    1.15257352e+01
     2.5000 0.00030996    1.16098849e+01
     3.0000 0.00037195    1.16965588e+01
     3.5000 0.00043394    1.17858829e+01
     4.0000 0.00049594    1.18779921e+01
     4.5000 0.00055793    1.19730302e+01
     5.0000 0.00061992    1.20711512e+01
     5.5000 0.00068191    1.21725202e+01
     6.0000 0.00074391    1.22773139e+01
     6.5000 0.00080590    1.23857223e+01
     7.0000 0.00086789    1.24979495e+01
     7.5000 0.00092988    1.26142152e+01
     8.0000 0.00099187    1.27347563e+01
     8.5000 0.00105387    1.28598284e+01
     9.0000 0.00111586    1.29897078e+01
     9.5000 0.00117785    1.31246937e+01
    10.0000 0.00123984    1.32651104e+01
    10.5000 0.00130183    1.34113103e+01
    11.0000 0.00136383    1.35636766e+01
    11.5000 0.00142582    1.37226269e+01
    12.0000 0.00148781    1.38886173e+01
    12.5000 0.00154980    1.40621465e+01
    13.0000 0.00161179    1.42437613e+01
    13.5000 0.00167379    1.44340620e+01
    14.0000 0.00173578    1.46337093e+01
    14.5000 0.00179777    1.48434319e+01
    15.0000 0.00185976    1.50640353e+01
    15.5000 0.00192176    1.52964117e+01
    16.0000 0.00198375    1.55415521e+01
    16.5000 0.00204574    1.58005595e+01
    17.0000 0.00210773    1.60746648e+01
    17.5000 0.00216972    1.63652447e+01
    18.0000 0.00223172    1.66738433e+01
    18.5000 0.00229371    1.70021962e+01
    19.0000 0.00235570    1.73522594e+01
    19.5000 0.00241769    1.77262421e+01
    20.0000 0.00247968    1.81266450e+01
    20.5000 0.00254168    1.85563039e+01
    21.0000 0.00260367    1.90184401e+01
    21.5000 0.00266566    1.95167167e+01
    22.0000 0.00272765    2.00553005e+01
    22.5000 0.00278964    2.06389288e+01
    23.0000 0.00285164    2.12729781e+01
    23.5000 0.00291363    2.19635266e+01
    24.0000 0.00297562    2.27174036e+01
    24.5000 0.00303761    2.35422050e+01
    25.0000 0.00309960    2.44462482e+01
    25.5000 0.00316160    2.54384214e+01
    26.0000 0.00322359    2.65278624e+01
    26.5000 0.00328558    2.77233712e+01
    27.0000 0.00334757    2.90324335e+01
    27.5000 0.00340957    3.04597092e+01
    28.0000 0.00347156    3.20048540e+01
    28.5000 0.00353355    3.36596407e+01
    29.0000 0.00359554    3.54045959e+01
    29.5000 0.00365753    3.72058403e+01
    30.0000 0.00371953    3.90134785e+01
    30.5000 0.00378152    4.07634697e+01
    31.0000 0.00384351    4.23848133e+01
    31.5000 0.00390550    4.38123796e+01
    32.0000 0.00396749    4.50027727e+01
    32.5000 0.00402949    4.59477214e+01
    33.0000 0.00409148    4.66791771e+01
    33.5000 0.00415347    4.72637494e+01
    34.0000 0.00421546    4.77892684e+01
    34.5000 0.00427745    4.83494255e+01
    35.0000 0.00433945    4.90318256e+01
    35.5000 0.00440144    4.99117870e+01
    36.0000 0.00446343    5.10513689e+01
    36.5000 0.00452542    5.25017375e+01
    37.0000 0.00458742    5.43069581e+01
    37.5000 0.00464941    5.65079009e+01
    38.0000 0.00471140    5.91455656e+01
    38.5000 0.00477339    6.22635445e+01
    39.0000 0.00483538    6.59095107e+01
    39.5000 0.00489738    7.01356094e+01
    40.0000 0.00495937    7.49974998e+01
    40.5000 0.00502136    8.05515733e+01
    41.0000 0.00508335    8.68495967e+01
    41.5000 0.00514534    9.39297351e+01
    42.0000 0.00520734    1.01802703e+02
    42.5000 0.00526933    1.10431925e+02
    43.0000 0.00533132    1.19707462e+02
    43.5000 0.00539331    1.29415759e+02
    44.0000 0.00545530    1.39211448e+02
    44.5000 0.00551730    1.48603339e+02
    45.0000 0.00557929    1.56971725e+02
    45.5000 0.00564128    1.63632914e+02
    46.0000 0.00570327    1.67953048e+02
    46.5000 0.00576527    1.69486981e+02
    47.0000 0.00582726    1.68092973e+02
    47.5000 0.00588925    1.63972404e+02
    48.0000 0.00595124    1.57615313e+02
    48.5000 0.00601323    1.49677940e+02
    49.0000 0.00607523    1.40845169e+02
    49.5000 0.00613722    1.31724032e+02
    50.0000 0.00619921    1.22787741e+02
    50.5000 0.00626120    1.14364887e+02
    51.0000 0.00632319    1.06656996e+02
    51.5000 0.00638519    9.97678580e+01
    52.0000 0.00644718    9.37335490e+01
    52.5000 0.00650917    8.85476987e+01
    53.0000 0.00657116    8.41804800e+01
    53.5000 0.00663315    8.05917658e+01
    54.0000 0.00669515    7.77396325e+01
    54.5000 0.00675714    7.55854302e+01
    55.0000 0.00681913    7.40964117e+01
    55.5000 0.00688112    7.32466124e+01
    56.0000 0.00694311    7.30164030e+01
    56.5000 0.00700511    7.33909192e+01
    57.0000 0.00706710    7.43574034e+01
    57.5000 0.00712909    7.59013281e+01
    58.0000 0.00719108    7.80009728e+01
    58.5000 0.00725308    8.06198805e+01
    59.0000 0.00731507    8.36964908e+01
    59.5000 0.00737706    8.71307018e+01
    60.0000 0.00743905    9.07687392e+01
    60.5000 0.00750104    9.43907586e+01
    61.0000 0.00756304    9.77091667e+01
    61.5000 0.00762503    1.00387252e+02
    62.0000 0.00768702    1.02083919e+02
    62.5000 0.00774901    1.02519279e+02
    63.0000 0.00781100    1.01541333e+02
    63.5000 0.00787300    9.91662246e+01
    64.0000 0.00793499    9.55729686e+01
    64.5000 0.00799698    9.10552012e+01
    65.0000 0.00805897    8.59522240e+01
    65.5000 0.00812096    8.05860644e+01
    66.0000 0.00818296    7.52211516e+01
    66.5000 0.00824495    7.00491006e+01
    67.0000 0.00830694    6.51919611e+01
    67.5000 0.00836893    6.07150096e+01
    68.0000 0.00843093    5.66420867e+01
    68.5000 0.00849292    5.29695033e+01
    69.0000 0.00855491    4.96769638e+01
    69.5000 0.00861690    4.67353754e+01
    70.0000 0.00867889    4.41120410e+01
    70.5000 0.00874089    4.17738894e+01
    71.0000 0.00880288    3.96893406e+01
    71.5000 0.00886487    3.78292692e+01
    72.0000 0.00892686    3.61674045e+01
    72.5000 0.00898885    3.46803917e+01
    73.0000 0.00905085    3.33476660e+01
    73.5000 0.00911284    3.21512301e+01
    74.0000 0.00917483    3.10753938e+01
    74.5000 0.00923682    3.01065079e+01
    75.0000 0.00929881    2.92327105e+01
    75.5000 0.00936081    2.84436947e+01
    76.0000 0.00942280    2.77305010e+01
    76.5000 0.00948479    2.70853352e+01
    77.0000 0.00954678    2.65014101e+01
    77.5000 0.00960878    2.59728083e+01
    78.0000 0.00967077    2.54943656e+01
    78.5000 0.00973276    2.50615703e+01
    79.0000 0.00979475    2.46704774e+01
    79.5000 0.00985674    2.43176358e+01
    80.0000 0.00991874    2.40000264e+01
    80.5000 0.00998073    2.37150083e+01
    81.0000 0.01004272    2.34602746e+01
    81.5000 0.01010471    2.32338141e+01
    82.0000 0.01016670    2.30338784e+01
    82.5000 0.01022870    2.28589548e+01
    83.0000 0.01029069    2.27077432e+01
    83.5000 0.01035268    2.25791369e+01
    84.0000 0.01041467    2.24722062e+01
    84.5000 0.01047666    2.23861857e+01
    85.0000 0.01053866    2.23204633e+01
    85.5000 0.01060065    2.22745725e+01
    86.0000 0.01066264    2.22481862e+01
    86.5000 0.01072463    2.22411128e+01
    87.0000 0.01078662    2.22532944e+01
    87.5000 0.01084862    2.22848063e+01
    88.0000 0.01091061    2.23358593e+01
    88.5000 0.01097260    2.24068035e+01
    89.0000 0.01103459    2.24981340e+01
    89.5000 0.01109659    2.26104992e+01
    90.0000 0.01115858    2.27447111e+01
    90.5000 0.01122057    2.29017587e+01
    91.0000 0.01128256    2.30828237e+01
    91.5000 0.01134455    2.32893005e+01
    92.0000 0.01140655    2.35228190e+01
    92.5000 0.01146854    2.37852724e+01
    93.0000 0.01153053    2.40788505e+01
    93.5000 0.01159252    2.44060777e+01
    94.0000 0.01165451    2.47698591e+01
    94.5000 0.01171651    2.51735346e+01
    95.0000 0.01177850    2.56209417e+01
    95.5000 0.01184049    2.61164906e+01
    96.0000 0.01190248    2.66652513e+01
    96.5000 0.01196447    2.72730565e+01
    97.0000 0.01202647    2.79466223e+01
    97.5000 0.01208846    2.86936884e+01
    98.0000 0.01215045    2.95231815e+01
    98.5000 0.01221244    3.04454048e+01
    99.0000 0.01227444    3.14722530e+01
    99.5000 0.01233643    3.26174568e+01
   100.0000 0.01239842    3.38968515e+01
   100.5000 0.01246041    3.53286632e+01
   101.0000 0.01252240    3.69337983e+01
   101.5000 0.01258440    3.87361041e+01
   102.0000 0.01264639    4.07625503e+01
   102.5000 0.01270838    4.30432446e+01
   103.0000 0.01277037    4.56111402e+01
   103.5000 0.01283236    4.85012206e+01
   104.0000 0.01289436    5.17488331e+01
   104.5000 0.01295635    5.53867086e+01
   105.0000 0.01301834    5.94400490e+01
   105.5000 0.01308033    6.39189553e+01
   106.0000 0.01314232    6.88075204e+01
   106.5000 0.01320432    7.40493692e+01
   107.0000 0.01326631    7.95306285e+01
   107.5000 0.01332830    8.50635980e+01
   108.0000 0.01339029    9.03776615e+01
   108.5000 0.01345229    9.51269923e+01
   109.0000 0.01351428    9.89243983e+01
   109.5000 0.01357627    1.01403584e+02
   110.0000 0.01363826    1.02297653e+02
   110.5000 0.01370025    1.01506859e+02
   111.0000 0.01376225    9.91260369e+01
   111.5000 0.01382424    9.54184840e+01
   112.0000 0.01388623    9.07489001e+01
   112.5000 0.01394822    8.55047772e+01
   113.0000 0.01401021    8.00334975e+01
   113.5000 0.01407221    7.46077402e+01
   114.0000 0.01413420    6.94172110e+01
   114.5000 0.01419619    6.45774281e+01
   115.0000 0.01425818    6.01459634e+01
   115.5000 0.01432017    5.61395068e+01
   116.0000 0.01438217    5.25484114e+01
   116.5000 0.01444416    4.93476923e+01
   117.0000 0.01450615    4.65046754e+01
   117.5000 0.01456814    4.39839690e+01
   118.0000 0.01463013    4.17504843e+01
   118.5000 0.01469213    3.97711295e+01
   119.0000 0.01475412    3.80156416e+01
   119.5000 0.01481611    3.64568883e+01
   120.0000 0.01487810    3.50708586e+01
   120.5000 0.01494010    3.38364840e+01
   121.0000 0.01500209    3.27353776e+01
   121.5000 0.01506408    3.17515461e+01
   122.0000 0.01512607    3.08711013e+01
   122.5000 0.01518806    3.00819910e+01
   123.0000 0.01525006    2.93737537e+01
   123.5000 0.01531205    2.87373011e+01
   124.0000 0.01537404    2.81647283e+01
   124.5000 0.01543603    2.76491486e+01
   125.0000 0.01549802    2.71845518e+01
   125.5000 0.01556002    2.67656821e+01
   126.0000 0.01562201    2.63879341e+01
   126.5000 0.01568400    2.60472639e+01
   127.0000 0.01574599    2.57401126e+01
   127.5000 0.01580798    2.54633418e+01
   128.0000 0.01586998    2.52141777e+01
   128.5000 0.01593197    2.49901637e+01
   129.0000 0.01599396    2.47891194e+01
   129.5000 0.01605595    2.46091059e+01
   130.0000 0.01611795    2.44483957e+01
   130.5000 0.01617994    2.43054462e+01
   131.0000 0.01624193    2.41788781e+01
   131.5000 0.01630392    2.40674553e+01
   132.0000 0.01636591    2.39700688e+01
   132.5000 0.01642791    2.38857215e+01
   133.0000 0.01648990    2.38135157e+01
   133.5000 0.01655189    2.37526424e+01
   134.0000 0.01661388    2.37023711e+01
   134.5000 0.01667587    2.36620416e+01
   135.0000 0.01673787    2.36310566e+01
   135.5000 0.01679986    2.36088749e+01
   136.0000 0.01686185    2.35950062e+01
   136.5000 0.01692384    2.35890054e+01
   137.0000 0.01698583    2.35904687e+01
   137.5000 0.01704783    2.35990291e+01
   138.0000 0.01710982    2.36143533e+01
   138.5000 0.01717181    2.36361384e+01
   139.0000 0.01723380    2.36641091e+01
   139.5000 0.01729580    2.36980156e+01
   140.0000 0.01735779    2.37376307e+01
   140.5000 0.01741978    2.37827485e+01
   141.0000 0.01748177    2.38331824e+01
   141.5000 0.01754376    2.38887634e+01
   142.0000 0.01760576    2.39493390e+01
   142.5000 0.01766775    2.40147715e+01
   143.0000 0.01772974    2.40849375e+01
   143.5000 0.01779173    2.41597264e+01
   144.0000 0.01785372    2.42390395e+01
   144.5000 0.01791572    2.43227896e+01
   145.0000 0.01797771    2.44108999e+01
   145.5000 0.01803970    2.45033035e+01
   146.0000 0.01810169    2.45999428e+01
   146.5000 0.01816368    2.47007689e+01
   147.0000 0.01822568    2.48057413e+01
   147.5000 0.01828767    2.49148276e+01
   148.0000 0.01834966    2.50280027e+01
   148.5000 0.01841165    2.51452490e+01
   149.0000 0.01847364    2.52665557e+01
   149.5000 0.01853564    2.53919189e+01
   150.0000 0.01859763    2.55213414e+01
   150.5000 0.01865962    2.56548321e+01
   151.0000 0.01872161    2.57924065e+01
   151.5000 0.01878361    2.59340862e+01
   152.0000 0.01884560    2.60798989e+01
   152.5000 0.01890759    2.62298787e+01
   153.0000 0.01896958    2.63840654e+01
   153.5000 0.01903157    2.65425053e+01
   154.0000 0.01909357    2.67052508e+01
   154.5000 0.01915556    2.68723605e+01
   155.0000 0.01921755    2.70438997e+01
   155.5000 0.01927954    2.72199401e+01
   156.0000 0.01934153    2.74005603e+01
   156.5000 0.01940353    2.75858457e+01
   157.0000 0.01946552    2.77758892e+01
   157.5000 0.01952751    2.79707914e+01
   158.0000 0.01958950    2.81706607e+01
   158.5000 0.01965149    2.83756138e+01
   159.0000 0.01971349    2.85857766e+01
   159.5000 0.01977548    2.88012841e+01
   160.0000 0.01983747    2.90222813e+01
   160.5000 0.01989946    2.92489240e+01
   161.0000 0.01996146    2.94813794e+01
   161.5000 0.02002345    2.97198269e+01
   162.0000 0.02008544    2.99644595e+01
   162.5000 0.02014743    3.02154842e+01
   163.0000 0.02020942    3.04731238e+01
   163.5000 0.02027142    3.07376181e+01
   164.0000 0.02033341    3.10092257e+01
   164.5000 0.02039540    3.12882253e+01
   165.0000 0.02045739    3.15749185e+01
   165.5000 0.02051938    3.18696314e+01
   166.0000 0.02058138    3.21727178e+01
   166.5000 0.02064337    3.24845621e+01
   167.0000 0.02070536    3.28055826e+01
   167.5000 0.02076735    3.31362361e+01
   168.0000 0.02082934    3.34770218e+01
   168.5000 0.02089134    3.38284870e+01
   169.0000 0.02095333    3.41912337e+01
   169.5000 0.02101532    3.45659249e+01
   170.0000 0.02107731    3.49532936e+01
   170.5000 0.02113931    3.53541524e+01
   171.0000 0.02120130    3.57694043e+01
   171.5000 0.02126329    3.62000566e+01
   172.0000 0.02132528    3.66472354e+01
   172.5000 0.02138727    3.71122039e+01
   173.0000 0.02144927    3.75963834e+01
   173.5000 0.02151126    3.81013766e+01
   174.0000 0.02157325    3.86289966e+01
   174.5000 0.02163524    3.91812983e+01
   175.0000 0.02169723    3.97606150e+01
   175.5000 0.02175923    4.03695998e+01
   176.0000 0.02182122    4.10112704e+01
   176.5000 0.02188321    4.16890562e+01
   177.0000 0.02194520    4.24068461e+01
   177.5000 0.02200719    4.31690297e+01
   178.0000 0.02206919    4.39805241e+01
   178.5000 0.02213118    4.48467701e+01
   179.0000 0.02219317    4.57736742e+01
   179.5000 0.02225516    4.67674576e+01
   180.0000 0.02231715    4.78343567e+01
   180.5000 0.02237915    4.89800963e+01
   181.0000 0.02244114    5.02090319e+01
   181.5000 0.02250313    5.15228446e+01
   182.0000 0.02256512    5.29186908e+01
   182.5000 0.02262712    5.43867980e+01
   183.0000 0.02268911    5.59077296e+01
   183.5000 0.02275110    5.74499349e+01
   184.0000 0.02281309    5.89687457e+01
   184.5000 0.02287508    6.04083909e+01
   185.0000 0.02293708    6.17083841e+01
   185.5000 0.02299907    6.28142346e+01
   186.0000 0.02306106    6.36899854e+01
   186.5000 0.02312305    6.43279707e+01
   187.0000 0.02318504    6.47514069e+01
   187.5000 0.02324704    6.50085643e+01
   188.0000 0.02330903    6.51613087e+01
   188.5000 0.02337102    6.52728631e+01
   189.0000 0.02343301    6.53987218e+01
   189.5000 0.02349500    6.55821632e+01
   190.0000 0.02355700    6.58536861e+01
   190.5000 0.02361899    6.62328127e+01
   191.0000 0.02368098    6.67308080e+01
   191.5000 0.02374297    6.73533838e+01
   192.0000 0.02380497    6.81029499e+01
   192.5000 0.02386696    6.89803060e+01
   193.0000 0.02392895    6.99858320e+01
   193.5000 0.02399094    7.11202901e+01
   194.0000 0.02405293    7.23853541e+01
   194.5000 0.02411493    7.37839635e+01
   195.0000 0.02417692    7.53205719e+01
   195.5000 0.02423891    7.70013428e+01
   196.0000 0.02430090    7.88343257e+01
   196.5000 0.02436289    8.08296362e+01
   197.0000 0.02442489    8.29996539e+01
   197.5000 0.02448688    8.53592442e+01
   198.0000 0.02454887    8.79260046e+01
   198.5000 0.02461086    9.07205270e+01
   199.0000 0.02467285    9.37666548e+01
   199.5000 0.02473485    9.70916968e+01
   200.0000 0.02479684    1.00726531e+02
   200.5000 0.02485883    1.04705490e+02
   201.0000 0.02492082    1.09065854e+02
   201.5000 0.02498282    1.13846687e+02
   202.0000 0.02504481    1.19086638e+02
   202.5000 0.02510680    1.24820171e+02
   203.0000 0.02516879    1.31071567e+02
   203.5000 0.02523078    1.37845995e+02
   204.0000 0.02529278    1.45117188e+02
   204.5000 0.02535477    1.52812034e+02
   205.0000 0.02541676    1.60794149e+02
   205.5000 0.02547875    1.68851228e+02
   206.0000 0.02554074    1.76694284e+02
   206.5000 0.02560274    1.83978455e+02
   207.0000 0.02566473    1.90351541e+02
   207.5000 0.02572672    1.95525322e+02
   208.0000 0.02578871    1.99349311e+02
   208.5000 0.02585070    2.01857431e+02
   209.0000 0.02591270    2.03266001e+02
   209.5000 0.02597469    2.03924209e+02
   210.0000 0.02603668    2.04240301e+02
   210.5000 0.02609867    2.04612715e+02
   211.0000 0.02616066    2.05385194e+02
   211.5000 0.02622266    2.06829484e+02
   212.0000 0.02628465    2.09148826e+02
   212.5000 0.02634664    2.12492557e+02
   213.0000 0.02640863    2.16973984e+02
   213.5000 0.02647063    2.22686962e+02
   214.0000 0.02653262    2.29719242e+02
   214.5000 0.02659461    2.38162217e+02
   215.0000 0.02665660    2.48117251e+02
   215.5000 0.02671859    2.59698833e+02
   216.0000 0.02678059    2.73034436e+02
   216.5000 0.02684258    2.88260431e+02
   217.0000 0.02690457    3.05512769e+02
   217.5000 0.02696656    3.24910390e+02
   218.0000 0.02702855    3.46528776e+02
   218.5000 0.02709055    3.70360951e+02
   219.0000 0.02715254    3.96264533e+02
   219.5000 0.02721453    4.23897274e+02
   220.0000 0.02727652    4.52651344e+02
   220.5000 0.02733851    4.81608604e+02
   221.0000 0.02740051    5.09551586e+02
   221.5000 0.02746250    5.35067913e+02
   222.0000 0.02752449    5.56764881e+02
   222.5000 0.02758648    5.73559708e+02
   223.0000 0.02764848    5.84949798e+02
   223.5000 0.02771047    5.91143484e+02
   224.0000 0.02777246    5.92980900e+02
   224.5000 0.02783445    5.91674969e+02
   225.0000 0.02789644    5.88484259e+02
   225.5000 0.02795844    5.84441855e+02
   226.0000 0.02802043    5.80217627e+02
   226.5000 0.02808242    5.76128741e+02
   227.0000 0.02814441    5.72264794e+02
   227.5000 0.02820640    5.68665017e+02
   228.0000 0.02826840    5.65475893e+02
   228.5000 0.02833039    5.63033759e+02
   229.0000 0.02839238    5.61856696e+02
   229.5000 0.02845437    5.62572847e+02
   230.0000 0.02851636    5.65832671e+02
   230.5000 0.02857836    5.72243759e+02
   231.0000 0.02864035    5.82343233e+02
   231.5000 0.02870234    5.96602883e+02
   232.0000 0.02876433    6.15453690e+02
   232.5000 0.02882633    6.39317076e+02
   233.0000 0.02888832    6.68634371e+02
   233.5000 0.02895031    7.03889856e+02
   234.0000 0.02901230    7.45624849e+02
   234.5000 0.02907429    7.94440537e+02
   235.0000 0.02913629    8.50986024e+02
   235.5000 0.02919828    9.15925774e+02
   236.0000 0.02926027    9.89877427e+02
   236.5000 0.02932226    1.07330754e+03
   237.0000 0.02938425    1.16637021e+03
   237.5000 0.02944625    1.26867473e+03
   238.0000 0.02950824    1.37897777e+03
   238.5000 0.02957023    1.49482171e+03
   239.0000 0.02963222    1.61218888e+03
   239.5000 0.02969421    1.72531116e+03
   240.0000 0.02975621    1.82683775e+03
   240.5000 0.02981820    1.90855836e+03
   241.0000 0.02988019    1.96272742e+03
   241.5000 0.02994218    1.98372774e+03
   242.0000 0.03000417    1.96949933e+03
   242.5000 0.03006617    1.92210873e+03
   243.0000 0.03012816    1.84718414e+03
   243.5000 0.03019015    1.75248905e+03
   244.0000 0.03025214    1.64625837e+03
   244.5000 0.03031414    1.53587224e+03
   245.0000 0.03037613    1.42713055e+03
   245.5000 0.03043812    1.32408353e+03
   246.0000 0.03050011    1.22922139e+03
   246.5000 0.03056210    1.14382017e+03
   247.0000 0.03062410    1.06830408e+03
   247.5000 0.03068609    1.00255429e+03
   248.0000 0.03074808    9.46142787e+02
   248.5000 0.03081007    8.98495691e+02
   249.0000 0.03087206    8.59000398e+02
   249.5000 0.03093406    8.27071924e+02
   250.0000 0.03099605    8.02191669e+02
   250.5000 0.03105804    7.83928474e+02
   251.0000 0.03112003    7.71948894e+02
   251.5000 0.03118202    7.66021276e+02
   252.0000 0.03124402    7.66016426e+02
   252.5000 0.03130601    7.71906400e+02
   253.0000 0.03136800    7.83761899e+02
   253.5000 0.03142999    8.01747848e+02
   254.0000 0.03149199    8.26115808e+02
   254.5000 0.03155398    8.57190645e+02
   255.0000 0.03161597    8.95347457e+02
   255.5000 0.03167796    9.40972791e+02
   256.0000 0.03173995    9.94402070e+02
   256.5000 0.03180195    1.05582324e+03
   257.0000 0.03186394    1.12513646e+03
   257.5000 0.03192593    1.20176413e+03
   258.0000 0.03198792    1.28441869e+03
   258.5000 0.03204991    1.37086346e+03
   259.0000 0.03211191    1.45774473e+03
   259.5000 0.03217390    1.54061980e+03
   260.0000 0.03223589    1.61432185e+03
   260.5000 0.03229788    1.67373431e+03
   261.0000 0.03235987    1.71486902e+03
   261.5000 0.03242187    1.73591781e+03
   262.0000 0.03248386    1.73784382e+03
   262.5000 0.03254585    1.72423477e+03
   263.0000 0.03260784    1.70049202e+03
   263.5000 0.03266984    1.67272623e+03
   264.0000 0.03273183    1.64677596e+03
   264.5000 0.03279382    1.62759059e+03
   265.0000 0.03285581    1.61899458e+03
   265.5000 0.03291780    1.62371202e+03
   266.0000 0.03297980    1.64349835e+03
   266.5000 0.03304179    1.67925650e+03
   267.0000 0.03310378    1.73106061e+03
   267.5000 0.03316577    1.79805028e+03
   268.0000 0.03322776    1.87819380e+03
   268.5000 0.03328976    1.96796083e+03
   269.0000 0.03335175    2.06200726e+03
   269.5000 0.03341374    2.15305311e+03
   270.0000 0.03347573    2.23219459e+03
   270.5000 0.03353772    2.28985632e+03
   271.0000 0.03359972    2.31738048e+03
   271.5000 0.03366171    2.30888484e+03
   272.0000 0.03372370    2.26270720e+03
   272.5000 0.03378569    2.18178546e+03
   273.0000 0.03384768    2.07278710e+03
   273.5000 0.03390968    1.94440178e+03
   274.0000 0.03397167    1.80551720e+03
   274.5000 0.03403366    1.66386258e+03
   275.0000 0.03409565    1.52533468e+03
   275.5000 0.03415765    1.39390648e+03
   276.0000 0.03421964    1.27188706e+03
   276.5000 0.03428163    1.16031740e+03
   277.0000 0.03434362    1.05936310e+03
   277.5000 0.03440561    9.68639210e+02
   278.0000 0.03446761    8.87450699e+02
   278.5000 0.03452960    8.14957101e+02
   279.0000 0.03459159    7.50277761e+02
   279.5000 0.03465358    6.92554636e+02
   280.0000 0.03471557    6.40986500e+02
   280.5000 0.03477757    5.94844849e+02
   281.0000 0.03483956    5.53478641e+02
   281.5000 0.03490155    5.16312601e+02
   282.0000 0.03496354    4.82842117e+02
   282.5000 0.03502553    4.52626581e+02
   283.0000 0.03508753    4.25282281e+02
   283.5000 0.03514952    4.00475464e+02
   284.0000 0.03521151    3.77915894e+02
   284.5000 0.03527350    3.57351041e+02
   285.0000 0.03533550    3.38560949e+02
   285.5000 0.03539749    3.21353748e+02
   286.0000 0.03545948    3.05561776e+02
   286.5000 0.03552147    2.91038236e+02
   287.0000 0.03558346    2.77654331e+02
   287.5000 0.03564546    2.65296807e+02
   288.0000 0.03570745    2.53865855e+02
   288.5000 0.03576944    2.43273316e+02
   289.0000 0.03583143    2.33441144e+02
   289.5000 0.03589342    2.24300088e+02
   290.0000 0.03595542    2.15788568e+02
   290.5000 0.03601741    2.07851703e+02
   291.0000 0.03607940    2.00440479e+02
   291.5000 0.03614139    1.93511030e+02
   292.0000 0.03620338    1.87024016e+02
   292.5000 0.03626538    1.80944091e+02
   293.0000 0.03632737    1.75239432e+02
   293.5000 0.03638936    1.69881342e+02
   294.0000 0.03645135    1.64843889e+02
   294.5000 0.03651335    1.60103610e+02
   295.0000 0.03657534    1.55639234e+02
   295.5000 0.03663733    1.51431452e+02
   296.0000 0.03669932    1.47462710e+02
   296.5000 0.03676131    1.43717029e+02
   297.0000 0.03682331    1.40179843e+02
   297.5000 0.03688530    1.36837861e+02
   298.0000 0.03694729    1.33678944e+02
   298.5000 0.03700928    1.30691993e+02
   299.0000 0.03707127    1.27866850e+02
   299.5000 0.03713327    1.25194219e+02
   300.0000 0.03719526    1.22665583e+02
   300.5000 0.03725725    1.20273137e+02
   301.0000 0.03731924    1.18009732e+02
   301.5000 0.03738123    1.15868816e+02
   302.0000 0.03744323    1.13844391e+02
   302.5000 0.03750522    1.11930969e+02
   303.0000 0.03756721    1.10123535e+02
   303.5000 0.03762920    1.08417512e+02
   304.0000 0.03769119    1.06808736e+02
   304.5000 0.03775319    1.05293429e+02
   305.0000 0.03781518    1.03868175e+02
   305.5000 0.03787717    1.02529906e+02
   306.0000 0.03793916    1.01275880e+02
   306.5000 0.03800116    1.00103674e+02
   307.0000 0.03806315    9.90111680e+01
   307.5000 0.03812514    9.79965423e+01
   308.0000 0.03818713    9.70582690e+01
   308.5000 0.03824912    9.61951110e+01
   309.0000 0.03831112    9.54061215e+01
   309.5000 0.03837311    9.46906476e+01
   310.0000 0.03843510    9.40483357e+01
   310.5000 0.03849709    9.34791409e+01
   311.0000 0.03855908    9.29833397e+01
   311.5000 0.03862108    9.25615459e+01
   312.0000 0.03868307    9.22147320e+01
   312.5000 0.03874506    9.19442537e+01
   313.0000 0.03880705    9.17518815e+01
   313.5000 0.03886904    9.16398369e+01
   314.0000 0.03893104    9.16108372e+01
   314.5000 0.03899303    9.16681470e+01
   315.0000 0.03905502    9.18156407e+01
   315.5000 0.03911701    9.20578747e+01
   316.0000 0.03917901    9.24001738e+01
   316.5000 0.03924100    9.28487319e+01
   317.0000 0.03930299    9.34107306e+01
   317.5000 0.03936498    9.40944796e+01
   318.0000 0.03942697    9.49095801e+01
   318.5000 0.03948897    9.58671177e+01
   319.0000 0.03955096    9.69798881e+01
   319.5000 0.03961295    9.82626619e+01
   320.0000 0.03967494    9.97324916e+01
   320.5000 0.03973693    1.01409070e+02
   321.0000 0.03979893    1.03315141e+02
   321.5000 0.03986092    1.05476969e+02
   322.0000 0.03992291    1.07924865e+02
   322.5000 0.03998490    1.10693757e+02
   323.0000 0.04004689    1.13823799e+02
   323.5000 0.04010889    1.17360955e+02
   324.0000 0.04017088    1.21357509e+02
   324.5000 0.04023287    1.25872352e+02
   325.0000 0.04029486    1.30970842e+02
   325.5000 0.04035686    1.36723910e+02
   326.0000 0.04041885    1.43205870e+02
   326.5000 0.04048084    1.50490196e+02
   327.0000 0.04054283    1.58642181e+02
   327.5000 0.04060482    1.67707115e+02
   328.0000 0.04066682    1.77692451e+02
   328.5000 0.04072881    1.88542767e+02
   329.0000 0.04079080    2.00107675e+02
   329.5000 0.04085279    2.12106059e+02
   330.0000 0.04091478    2.24095475e+02
   330.5000 0.04097678    2.35462651e+02
   331.0000 0.04103877    2.45455818e+02
   331.5000 0.04110076    2.53275156e+02
   332.0000 0.04116275    2.58217401e+02
   332.5000 0.04122474    2.59837982e+02
   333.0000 0.04128674    2.58069047e+02
   333.5000 0.04134873    2.53239453e+02
   334.0000 0.04141072    2.45986987e+02
   334.5000 0.04147271    2.37104357e+02
   335.0000 0.04153470    2.27382545e+02
   335.5000 0.04159670    2.17499283e+02
   336.0000 0.04165869    2.07967438e+02
   336.5000 0.04172068    1.99132224e+02
   337.0000 0.04178267    1.91196610e+02
   337.5000 0.04184467    1.84256715e+02
   338.0000 0.04190666    1.78335931e+02
   338.5000 0.04196865    1.73412713e+02
   339.0000 0.04203064    1.69440998e+02
   339.5000 0.04209263    1.66364137e+02
   340.0000 0.04215463    1.64123822e+02
   340.5000 0.04221662    1.62665467e+02
   341.0000 0.04227861    1.61941243e+02
   341.5000 0.04234060    1.61911609e+02
   342.0000 0.04240259    1.62545970e+02
   342.5000 0.04246459    1.63822840e+02
   343.0000 0.04252658    1.65729790e+02
   343.5000 0.04258857    1.68263319e+02
   344.0000 0.04265056    1.71428771e+02
   344.5000 0.04271255    1.75240355e+02
   345.0000 0.04277455    1.79721296e+02
   345.5000 0.04283654    1.84904177e+02
   346.0000 0.04289853    1.90831454e+02
   346.5000 0.04296052    1.97556210e+02
   347.0000 0.04302252    2.05143134e+02
   347.5000 0.04308451    2.13669779e+02
   348.0000 0.04314650    2.23228116e+02
   348.5000 0.04320849    2.33926426e+02
   349.0000 0.04327048    2.45891558e+02
   349.5000 0.04333248    2.59271605e+02
   350.0000 0.04339447    2.74239014e+02
   350.5000 0.04345646    2.90994157e+02
   351.0000 0.04351845    3.09769337e+02
   351.5000 0.04358044    3.30833155e+02
   352.0000 0.04364244    3.54495058e+02
   352.5000 0.04370443    3.81109696e+02
   353.0000 0.04376642    4.11080452e+02
   353.5000 0.04382841    4.44861039e+02
   354.0000 0.04389040    4.82953355e+02
   354.5000 0.04395240    5.25898766e+02
   355.0000 0.04401439    5.74258452e+02
   355.5000 0.04407638    6.28576519e+02
   356.0000 0.04413837    6.89317134e+02
   356.5000 0.04420037    7.56764779e+02
   357.0000 0.04426236    8.30876002e+02
   357.5000 0.04432435    9.11074880e+02
   358.0000 0.04438634    9.95997405e+02
   358.5000 0.04444833    1.08321813e+03
   359.0000 0.04451033    1.16903836e+03
   359.5000 0.04457232    1.24846886e+03
   360.0000 0.04463431    1.31556703e+03
   360.5000 0.04469630    1.36423075e+03
   361.0000 0.04475829    1.38936898e+03
   361.5000 0.04482029    1.38811441e+03
   362.0000 0.04488228    1.36059199e+03
   362.5000 0.04494427    1.30988405e+03
   363.0000 0.04500626    1.24120904e+03
   363.5000 0.04506825    1.16069478e+03
   364.0000 0.04513025    1.07422917e+03
   364.5000 0.04519224    9.86703179e+02
   365.0000 0.04525423    9.01707590e+02
   365.5000 0.04531622    8.21571767e+02
   366.0000 0.04537821    7.47584674e+02
   366.5000 0.04544021    6.80268998e+02
   367.0000 0.04550220    6.19633383e+02
   367.5000 0.04556419    5.65372367e+02
   368.0000 0.04562618    5.17010328e+02
   368.5000 0.04568818    4.73997806e+02
   369.0000 0.04575017    4.35771876e+02
   369.5000 0.04581216    4.01791337e+02
   370.0000 0.04587415    3.71555250e+02
   370.5000 0.04593614    3.44610957e+02
   371.0000 0.04599814    3.20555796e+02
   371.5000 0.04606013    2.99035246e+02
   372.0000 0.04612212    2.79739249e+02
   372.5000 0.04618411    2.62397753e+02
   373.0000 0.04624610    2.46776102e+02
   373.5000 0.04630810    2.32670608e+02
   374.0000 0.04637009    2.19904485e+02
   374.5000 0.04643208    2.08324207e+02
   375.0000 0.04649407    1.97796297e+02
   375.5000 0.04655606    1.88204542e+02
   376.0000 0.04661806    1.79447582e+02
   376.5000 0.04668005    1.71436844e+02
   377.0000 0.04674204    1.64094769e+02
   377.5000 0.04680403    1.57353298e+02
   378.0000 0.04686603    1.51152575e+02
   378.5000 0.04692802    1.45439844e+02
   379.0000 0.04699001    1.40168505e+02
   379.5000 0.04705200    1.35297303e+02
   380.0000 0.04711399    1.30789638e+02
   380.5000 0.04717599    1.26612967e+02
   381.0000 0.04723798    1.22738298e+02
   381.5000 0.04729997    1.19139748e+02
   382.0000 0.04736196    1.15794164e+02
   382.5000 0.04742395    1.12680794e+02
   383.0000 0.04748595    1.09781006e+02
   383.5000 0.04754794    1.07078040e+02
   384.0000 0.04760993    1.04556793e+02
   384.5000 0.04767192    1.02203635e+02
   385.0000 0.04773391    1.00006243e+02
   385.5000 0.04779591    9.79534615e+01
   386.0000 0.04785790    9.60351753e+01
   386.5000 0.04791989    9.42422008e+01
   387.0000 0.04798188    9.25661895e+01
   387.5000 0.04804388    9.09995431e+01
   388.0000 0.04810587    8.95353378e+01
   388.5000 0.04816786    8.81672587e+01
   389.0000 0.04822985    8.68895404e+01
   389.5000 0.04829184    8.56969151e+01
   390.0000 0.04835384    8.45845660e+01
   390.5000 0.04841583    8.35480865e+01
   391.0000 0.04847782    8.25834427e+01
   391.5000 0.04853981    8.16869412e+01
   392.0000 0.04860180    8.08551996e+01
   392.5000 0.04866380    8.00851202e+01
   393.0000 0.04872579    7.93738669e+01
   393.5000 0.04878778    7.87188436e+01
   394.0000 0.04884977    7.81176759e+01
   394.5000 0.04891176    7.75681940e+01
   395.0000 0.04897376    7.70684177e+01
   395.5000 0.04903575    7.66165427e+01
   396.0000 0.04909774    7.62109283e+01
   396.5000 0.04915973    7.58500870e+01
   397.0000 0.04922172    7.55326743e+01
   397.5000 0.04928372    7.52574800e+01
   398.0000 0.04934571    7.50234207e+01
   398.5000 0.04940770    7.48295327e+01
   399.0000 0.04946969    7.46749662e+01
   399.5000 0.04953169    7.45589794e+01
   400.0000 0.04959368    7.44809343e+01
   400.5000 0.04965567    7.44402925e+01
   401.0000 0.04971766    7.44366116e+01
   401.5000 0.04977965    7.44695427e+01
   402.0000 0.04984165    7.45388277e+01
   402.5000 0.04990364    7.46442974e+01
   403.0000 0.04996563    7.47858707e+01
   403.5000 0.05002762    7.49635533e+01
   404.0000 0.05008961    7.51774378e+01
   404.5000 0.05015161    7.54277032e+01
   405.0000 0.05021360    7.57146166e+01
   405.5000 0.05027559    7.60385334e+01
   406.0000 0.05033758    7.63998998e+01
   406.5000 0.05039957    7.67992549e+01
   407.0000 0.05046157    7.72372335e+01
   407.5000 0.05052356    7.77145699e+01
   408.0000 0.05058555    7.82321021e+01
   408.5000 0.05064754    7.87907772e+01
   409.0000 0.05070954    7.93916567e+01
   409.5000 0.05077153    8.00359237e+01
   410.0000 0.05083352    8.07248902e+01
   410.5000 0.05089551    8.14600059e+01
   411.0000 0.05095750    8.22428673e+01
   411.5000 0.05101950    8.30752275e+01
   412.0000 0.05108149    8.39590067e+01
   412.5000 0.05114348    8.48963014e+01
   413.0000 0.05120547    8.58893930e+01
   413.5000 0.05126746    8.69407518e+01
   414.0000 0.05132946    8.80530350e+01
   414.5000 0.05139145    8.92290734e+01
   415.0000 0.05145344    9.04718406e+01
   415.5000 0.05151543    9.17843959e+01
   416.0000 0.05157742    9.31697913e+01
   416.5000 0.05163942    9.46309340e+01
   417.0000 0.05170141    9.61704019e+01
   417.5000 0.05176340    9.77902292e+01
   418.0000 0.05182539    9.94917105e+01
   418.5000 0.05188739    1.01275317e+02
   419.0000 0.05194938    1.03140859e+02
   419.5000 0.05201137    1.05088019e+02
   420.0000 0.05207336    1.07117264e+02
   420.5000 0.05213535    1.09230963e+02
   421.0000 0.05219735    1.11434305e+02
   421.5000 0.05225934    1.13735651e+02
   422.0000 0.05232133    1.16146153e+02
   422.5000 0.05238332    1.18678859e+02
   423.0000 0.05244531    1.21347708e+02
   423.5000 0.05250731    1.24166773e+02
   424.0000 0.05256930    1.27149908e+02
   424.5000 0.05263129    1.30310747e+02
   425.0000 0.05269328    1.33662936e+02
   425.5000 0.05275527    1.37220468e+02
   426.0000 0.05281727    1.40998030e+02
   426.5000 0.05287926    1.45011335e+02
   427.0000 0.05294125    1.49277423e+02
   427.5000 0.05300324    1.53814929e+02
   428.0000 0.05306523    1.58644346e+02
   428.5000 0.05312723    1.63788291e+02
   429.0000 0.05318922    1.69271774e+02
   429.5000 0.05325121    1.75122502e+02
   430.0000 0.05331320    1.81371213e+02
   430.5000 0.05337520    1.88052048e+02
   431.0000 0.05343719    1.95202991e+02
   431.5000 0.05349918    2.02866354e+02
   432.0000 0.05356117    2.11089353e+02
   432.5000 0.05362316    2.19924763e+02
   433.0000 0.05368516    2.29431680e+02
   433.5000 0.05374715    2.39676404e+02
   434.0000 0.05380914    2.50733462e+02
   434.5000 0.05387113    2.62686805e+02
   435.0000 0.05393312    2.75631196e+02
   435.5000 0.05399512    2.89673837e+02
   436.0000 0.05405711    3.04936261e+02
   436.5000 0.05411910    3.21556553e+02
   437.0000 0.05418109    3.39691949e+02
   437.5000 0.05424308    3.59521874e+02
   438.0000 0.05430508    3.81251503e+02
   438.5000 0.05436707    4.05115914e+02
   439.0000 0.05442906    4.31384935e+02
   439.5000 0.05449105    4.60368762e+02
   440.0000 0.05455305    4.92424438e+02
   440.5000 0.05461504    5.27963250e+02
   441.0000 0.05467703    5.67459035e+02
   441.5000 0.05473902    6.11457324e+02
   442.0000 0.05480101    6.60585031e+02
   442.5000 0.05486301    7.15560131e+02
   443.0000 0.05492500    7.77200281e+02
   443.5000 0.05498699    8.46428531e+02
   444.0000 0.05504898    9.24273089e+02
   444.5000 0.05511097    1.01185620e+03
   445.0000 0.05517297    1.11036449e+03
   445.5000 0.05523496    1.22098927e+03
   446.0000 0.05529695    1.34482058e+03
   446.5000 0.05535894    1.48267360e+03
   447.0000 0.05542093    1.63482257e+03
   447.5000 0.05548293    1.80062032e+03
   448.0000 0.05554492    1.97799884e+03
   448.5000 0.05560691    2.16288997e+03
   449.0000 0.05566890    2.34868668e+03
   449.5000 0.05573090    2.52597720e+03
   450.0000 0.05579289    2.68288105e+03
   450.5000 0.05585488    2.80629047e+03
   451.0000 0.05591687    2.88405506e+03
   451.5000 0.05597886    2.90764275e+03
   452.0000 0.05604086    2.87433153e+03
   452.5000 0.05610285    2.78796103e+03
   453.0000 0.05616484    2.65787959e+03
   453.5000 0.05622683    2.49659313e+03
   454.0000 0.05628882    2.31712916e+03
   454.5000 0.05635082    2.13099925e+03
   455.0000 0.05641281    1.94712939e+03
   455.5000 0.05647480    1.77165408e+03
   456.0000 0.05653679    1.60825156e+03
   456.5000 0.05659878    1.45870289e+03
   457.0000 0.05666078    1.32346299e+03
   457.5000 0.05672277    1.20214035e+03
   458.0000 0.05678476    1.09385625e+03
   458.5000 0.05684675    9.97492849e+02
   459.0000 0.05690874    9.11853324e+02
   459.5000 0.05697074    8.35758533e+02
   460.0000 0.05703273    7.68100647e+02
   460.5000 0.05709472    7.07869031e+02
   461.0000 0.05715671    6.54159107e+02
   461.5000 0.05721871    6.06171282e+02
   462.0000 0.05728070    5.63204534e+02
   462.5000 0.05734269    5.24647470e+02
   463.0000 0.05740468    4.89968549e+02
   463.5000 0.05746667    4.58706428e+02
   464.0000 0.05752867    4.30460940e+02
   464.5000 0.05759066    4.04884927e+02
   465.0000 0.05765265    3.81677009e+02
   465.5000 0.05771464    3.60575274e+02
   466.0000 0.05777663    3.41351803e+02
   466.5000 0.05783863    3.23807983e+02
   467.0000 0.05790062    3.07770471e+02
   467.5000 0.05796261    2.93087770e+02
   468.0000 0.05802460    2.79627296e+02
   468.5000 0.05808659    2.67272895e+02
   469.0000 0.05814859    2.55922719e+02
   469.5000 0.05821058    2.45487439e+02
   470.0000 0.05827257    2.35888719e+02
   470.5000 0.05833456    2.27057931e+02
   471.0000 0.05839656    2.18935073e+02
   471.5000 0.05845855    2.11467866e+02
   472.0000 0.05852054    2.04611001e+02
   472.5000 0.05858253    1.98325522e+02
   473.0000 0.05864452    1.92578342e+02
   473.5000 0.05870652    1.87341858e+02
   474.0000 0.05876851    1.82593674e+02
   474.5000 0.05883050    1.78316419e+02
   475.0000 0.05889249    1.74497654e+02
   475.5000 0.05895448    1.71129857e+02
   476.0000 0.05901648    1.68210487e+02
   476.5000 0.05907847    1.65742100e+02
   477.0000 0.05914046    1.63732503e+02
   477.5000 0.05920245    1.62194901e+02
   478.0000 0.05926444    1.61147968e+02
   478.5000 0.05932644    1.60615740e+02
   479.0000 0.05938843    1.60627136e+02
   479.5000 0.05945042    1.61214856e+02
   480.0000 0.05951241    1.62413230e+02
   480.5000 0.05957441    1.64254442e+02
   481.0000 0.05963640    1.66762351e+02
   481.5000 0.05969839    1.69942972e+02
   482.0000 0.05976038    1.73770750e+02
   482.5000 0.05982237    1.78170266e+02
   483.0000 0.05988437    1.82994514e+02
   483.5000 0.05994636    1.88003668e+02
   484.0000 0.06000835    1.92852448e+02
   484.5000 0.06007034    1.97098108e+02
   485.0000 0.06013233    2.00241278e+02
   485.5000 0.06019433    2.01803488e+02
   486.0000 0.06025632    2.01427190e+02
   486.5000 0.06031831    1.98964650e+02
   487.0000 0.06038030    1.94517344e+02
   487.5000 0.06044229    1.88406873e+02
   488.0000 0.06050429    1.81091508e+02
   488.5000 0.06056628    1.73065258e+02
   489.0000 0.06062827    1.64775248e+02
   489.5000 0.06069026    1.56574925e+02
   490.0000 0.06075225    1.48711543e+02
   490.5000 0.06081425    1.41336361e+02
   491.0000 0.06087624    1.34525114e+02
   491.5000 0.06093823    1.28299950e+02
   492.0000 0.06100022    1.22648325e+02
   492.5000 0.06106222    1.17537384e+02
   493.0000 0.06112421    1.12924005e+02
   493.5000 0.06118620    1.08761354e+02
   494.0000 0.06124819    1.05002887e+02
   494.5000 0.06131018    1.01604603e+02
   495.0000 0.06137218    9.85261617e+01
   495.5000 0.06143417    9.57313019e+01
   496.0000 0.06149616    9.31878421e+01
   496.5000 0.06155815    9.08674584e+01
   497.0000 0.06162014    8.87453516e+01
   497.5000 0.06168214    8.67998745e+01
   498.0000 0.06174413    8.50121595e+01
   498.5000 0.06180612    8.33657679e+01
   499.0000 0.06186811    8.18463718e+01
   499.5000 0.06193010    8.04414704e+01
   500.0000 0.06199210    7.91401422e+01
   500.5000 0.06205409    7.79328297e+01
   501.0000 0.06211608    7.68111541e+01
   501.5000 0.06217807    7.57677561e+01
   502.0000 0.06224007    7.47961597e+01
   502.5000 0.06230206    7.38906556e+01
   503.0000 0.06236405    7.30462023e+01
   503.5000 0.06242604    7.22583408e+01
   504.0000 0.06248803    7.15231221e+01
   504.5000 0.06255003    7.08370455e+01
   505.0000 0.06261202    7.01970057e+01
   505.5000 0.06267401    6.96002470e+01
   506.0000 0.06273600    6.90443253e+01
   506.5000 0.06279799    6.85270747e+01
   507.0000 0.06285999    6.80465789e+01
   507.5000 0.06292198    6.76011479e+01
   508.0000 0.06298397    6.71892967e+01
   508.5000 0.06304596    6.68097286e+01
   509.0000 0.06310795    6.64613201e+01
   509.5000 0.06316995    6.61431094e+01
   510.0000 0.06323194    6.58542862e+01
   510.5000 0.06329393    6.55941838e+01
   511.0000 0.06335592    6.53622732e+01
   511.5000 0.06341792    6.51581586e+01
   512.0000 0.06347991    6.49815751e+01
   512.5000 0.06354190    6.48323871e+01
   513.0000 0.06360389    6.47105891e+01
   513.5000 0.06366588    6.46163076e+01
   514.0000 0.06372788    6.45498047e+01
   514.5000 0.06378987    6.45114838e+01
   515.0000 0.06385186    6.45018965e+01
   515.5000 0.06391385    6.45217518e+01
   516.0000 0.06397584    6.45719274e+01
   516.5000 0.06403784    6.46534837e+01
   517.0000 0.06409983    6.47676799e+01
   517.5000 0.06416182    6.49159941e+01
   518.0000 0.06422381    6.51001459e+01
   518.5000 0.06428580    6.53221238e+01
   519.0000 0.06434780    6.55842174e+01
   519.5000 0.06440979    6.58890543e+01
   520.0000 0.06447178    6.62396442e+01
   520.5000 0.06453377    6.66394302e+01
   521.0000 0.06459576    6.70923487e+01
   521.5000 0.06465776    6.76028999e+01
   522.0000 0.06471975    6.81762299e+01
   522.5000 0.06478174    6.88182278e+01
   523.0000 0.06484373    6.95356386e+01
   523.5000 0.06490573    7.03361960e+01
   524.0000 0.06496772    7.12287778e+01
   524.5000 0.06502971    7.22235874e+01
   525.0000 0.06509170    7.33323652e+01
   525.5000 0.06515369    7.45686341e+01
   526.0000 0.06521569    7.59479815e+01
   526.5000 0.06527768    7.74883809e+01
   527.0000 0.06533967    7.92105518e+01
   527.5000 0.06540166    8.11383531e+01
   528.0000 0.06546365    8.32991968e+01
   528.5000 0.06552565    8.57244526e+01
   529.0000 0.06558764    8.84497950e+01
   529.5000 0.06564963    9.15154028e+01
   530.0000 0.06571162    9.49658690e+01
   530.5000 0.06577361    9.88495901e+01
   531.0000 0.06583561    1.03217283e+02
   531.5000 0.06589760    1.08119110e+02
   532.0000 0.06595959    1.13599689e+02
   532.5000 0.06602158    1.19690064e+02
   533.0000 0.06608358    1.26395610e+02
   533.5000 0.06614557    1.33679080e+02
   534.0000 0.06620756    1.41438982e+02
   534.5000 0.06626955    1.49485611e+02
   535.0000 0.06633154    1.57520885e+02
   535.5000 0.06639354    1.65132808e+02
   536.0000 0.06645553    1.71818530e+02
   536.5000 0.06651752    1.77046632e+02
   537.0000 0.06657951    1.80355254e+02
   537.5000 0.06664150    1.81460664e+02
   538.0000 0.06670350    1.80334521e+02
   538.5000 0.06676549    1.77214321e+02
   539.0000 0.06682748    1.72541695e+02
   539.5000 0.06688947    1.66857347e+02
   540.0000 0.06695146    1.60695144e+02
   540.5000 0.06701346    1.54506529e+02
   541.0000 0.06707545    1.48624181e+02
   541.5000 0.06713744    1.43257045e+02
   542.0000 0.06719943    1.38503075e+02
   542.5000 0.06726143    1.34368572e+02
   543.0000 0.06732342    1.30788535e+02
   543.5000 0.06738541    1.27647357e+02
   544.0000 0.06744740    1.24801664e+02
   544.5000 0.06750939    1.22106236e+02
   545.0000 0.06757139    1.19440307e+02
   545.5000 0.06763338    1.16727654e+02
   546.0000 0.06769537    1.13943471e+02
   546.5000 0.06775736    1.11105784e+02
   547.0000 0.06781935    1.08256311e+02
   547.5000 0.06788135    1.05439924e+02
   548.0000 0.06794334    1.02690824e+02
   548.5000 0.06800533    1.00028633e+02
   549.0000 0.06806732    9.74625534e+01
   549.5000 0.06812931    9.49987157e+01
   550.0000 0.06819131    9.26459085e+01
   550.5000 0.06825330    9.04171644e+01
   551.0000 0.06831529    8.83276598e+01
   551.5000 0.06837728    8.63911164e+01
   552.0000 0.06843927    8.46168370e+01
   552.5000 0.06850127    8.30083794e+01
   553.0000 0.06856326    8.15637750e+01
   553.5000 0.06862525    8.02766729e+01
   554.0000 0.06868724    7.91377832e+01
   554.5000 0.06874924    7.81362097e+01
   555.0000 0.06881123    7.72604916e+01
   555.5000 0.06887322    7.64993250e+01
   556.0000 0.06893521    7.58420113e+01
   556.5000 0.06899720    7.52786997e+01
   557.0000 0.06905920    7.48004894e+01
   557.5000 0.06912119    7.43994427e+01
   558.0000 0.06918318    7.40685448e+01
   558.5000 0.06924517    7.38016372e+01
   559.0000 0.06930716    7.35933386e+01
   559.5000 0.06936916    7.34389643e+01
   560.0000 0.06943115    7.33344488e+01
   560.5000 0.06949314    7.32762746e+01
   561.0000 0.06955513    7.32614085e+01
   561.5000 0.06961712    7.32872455e+01
   562.0000 0.06967912    7.33515601e+01
   562.5000 0.06974111    7.34524642e+01
   563.0000 0.06980310    7.35883716e+01
   563.5000 0.06986509    7.37579675e+01
   564.0000 0.06992709    7.39601830e+01
   564.5000 0.06998908    7.41941743e+01
   565.0000 0.07005107    7.44593052e+01
   565.5000 0.07011306    7.47551330e+01
   566.0000 0.07017505    7.50813980e+01
   566.5000 0.07023705    7.54380148e+01
   567.0000 0.07029904    7.58250673e+01
   567.5000 0.07036103    7.62428047e+01
   568.0000 0.07042302    7.66916408e+01
   568.5000 0.07048501    7.71721551e+01
   569.0000 0.07054701    7.76850958e+01
   569.5000 0.07060900    7.82313851e+01
   570.0000 0.07067099    7.88121271e+01
   570.5000 0.07073298    7.94286173e+01
   571.0000 0.07079497    8.00823550e+01
   571.5000 0.07085697    8.07750585e+01
   572.0000 0.07091896    8.15086831e+01
   572.5000 0.07098095    8.22854423e+01
   573.0000 0.07104294    8.31078328e+01
   573.5000 0.07110494    8.39786637e+01
   574.0000 0.07116693    8.49010904e+01
   574.5000 0.07122892    8.58786544e+01
   575.0000 0.07129091    8.69153288e+01
   575.5000 0.07135290    8.80155711e+01
   576.0000 0.07141490    8.91843855e+01
   576.5000 0.07147689    9.04273940e+01
   577.0000 0.07153888    9.17509194e+01
   577.5000 0.07160087    9.31620823e+01
   578.0000 0.07166286    9.46689135e+01
   578.5000 0.07172486    9.62804854e+01
   579.0000 0.07178685    9.80070654e+01
   579.5000 0.07184884    9.98602950e+01
   580.0000 0.07191083    1.01853400e+02
   580.5000 0.07197282    1.04001435e+02
   581.0000 0.07203482    1.06321573e+02
   581.5000 0.07209681    1.08833440e+02
   582.0000 0.07215880    1.11559511e+02
   582.5000 0.07222079    1.14525568e+02
   583.0000 0.07228278    1.17761234e+02
   583.5000 0.07234478    1.21300593e+02
   584.0000 0.07240677    1.25182892e+02
   584.5000 0.07246876    1.29453347e+02
   585.0000 0.07253075    1.34164026e+02
   585.5000 0.07259275    1.39374800e+02
   586.0000 0.07265474    1.45154318e+02
   586.5000 0.07271673    1.51580905e+02
   587.0000 0.07277872    1.58743241e+02
   587.5000 0.07284071    1.66740541e+02
   588.0000 0.07290271    1.75681821e+02
   588.5000 0.07296470    1.85683558e+02
   589.0000 0.07302669    1.96864756e+02
   589.5000 0.07308868    2.09337928e+02
   590.0000 0.07315067    2.23194044e+02
   590.5000 0.07321267    2.38479047e+02
   591.0000 0.07327466    2.55159571e+02
   591.5000 0.07333665    2.73076704e+02
   592.0000 0.07339864    2.91890096e+02
   592.5000 0.07346063    3.11021630e+02
   593.0000 0.07352263    3.29618386e+02
   593.5000 0.07358462    3.46565410e+02
   594.0000 0.07364661    3.60581072e+02
   594.5000 0.07370860    3.70409075e+02
   595.0000 0.07377060    3.75076528e+02
   595.5000 0.07383259    3.74135162e+02
   596.0000 0.07389458    3.67783692e+02
   596.5000 0.07395657    3.56812914e+02
   597.0000 0.07401856    3.42400238e+02
   597.5000 0.07408056    3.25846094e+02
   598.0000 0.07414255    3.08349042e+02
   598.5000 0.07420454    2.90871941e+02
   599.0000 0.07426653    2.74100013e+02
   599.5000 0.07432852    2.58462291e+02
   600.0000 0.07439052    2.44183343e+02
   600.5000 0.07445251    2.31340956e+02
   601.0000 0.07451450    2.19916764e+02
   601.5000 0.07457649    2.09835245e+02
   602.0000 0.07463848    2.00991222e+02
   602.5000 0.07470048    1.93267953e+02
   603.0000 0.07476247    1.86548269e+02
   603.5000 0.07482446    1.80720926e+02
   604.0000 0.07488645    1.75683822e+02
   604.5000 0.07494845    1.71345281e+02
   605.0000 0.07501044    1.67624163e+02
   605.5000 0.07507243    1.64449357e+02
   606.0000 0.07513442    1.61758941e+02
   606.5000 0.07519641    1.59499232e+02
   607.0000 0.07525841    1.57623818e+02
   607.5000 0.07532040    1.56092650e+02
   608.0000 0.07538239    1.54871210e+02
   608.5000 0.07544438    1.53929768e+02
   609.0000 0.07550637    1.53242741e+02
   609.5000 0.07556837    1.52788126e+02
   610.0000 0.07563036    1.52547020e+02
   610.5000 0.07569235    1.52503205e+02
   611.0000 0.07575434    1.52642800e+02
   611.5000 0.07581633    1.52953958e+02
   612.0000 0.07587833    1.53426613e+02
   612.5000 0.07594032    1.54052264e+02
   613.0000 0.07600231    1.54823794e+02
   613.5000 0.07606430    1.55735314e+02
   614.0000 0.07612629    1.56782034e+02
   614.5000 0.07618829    1.57960157e+02
   615.0000 0.07625028    1.59266784e+02
   615.5000 0.07631227    1.60699839e+02
   616.0000 0.07637426    1.62258010e+02
   616.5000 0.07643626    1.63940696e+02
   617.0000 0.07649825    1.65747966e+02
   617.5000 0.07656024    1.67680534e+02
   618.0000 0.07662223    1.69739730e+02
   618.5000 0.07668422    1.71927489e+02
   619.0000 0.07674622    1.74246346e+02
   619.5000 0.07680821    1.76699429e+02
   620.0000 0.07687020    1.79290472e+02
   620.5000 0.07693219    1.82023822e+02
   621.0000 0.07699418    1.84904462e+02
   621.5000 0.07705618    1.87938031e+02
   622.0000 0.07711817    1.91130860e+02
   622.5000 0.07718016    1.94490012e+02
   623.0000 0.07724215    1.98023324e+02
   623.5000 0.07730414    2.01739462e+02
   624.0000 0.07736614    2.05647990e+02
   624.5000 0.07742813    2.09759437e+02
   625.0000 0.07749012    2.14085381e+02
   625.5000 0.07755211    2.18638549e+02
   626.0000 0.07761411    2.23432923e+02
   626.5000 0.07767610    2.28483865e+02
   627.0000 0.07773809    2.33808257e+02
   627.5000 0.07780008    2.39424662e+02
   628.0000 0.07786207    2.45353504e+02
   628.5000 0.07792407    2.51617274e+02
   629.0000 0.07798606    2.58240755e+02
   629.5000 0.07804805    2.65251283e+02
   630.0000 0.07811004    2.72679023e+02
   630.5000 0.07817203    2.80557286e+02
   631.0000 0.07823403    2.88922851e+02
   631.5000 0.07829602    2.97816310e+02
   632.0000 0.07835801    3.07282401e+02
   632.5000 0.07842000    3.17370307e+02
   633.0000 0.07848199    3.28133872e+02
   633.5000 0.07854399    3.39631684e+02
   634.0000 0.07860598    3.51926935e+02
   634.5000 0.07866797    3.65087000e+02
   635.0000 0.07872996    3.79182713e+02
   635.5000 0.07879196    3.94287445e+02
   636.0000 0.07885395    4.10476367e+02
   636.5000 0.07891594    4.27826647e+02
   637.0000 0.07897793    4.46419757e+02
   637.5000 0.07903992    4.66347113e+02
   638.0000 0.07910192    4.87719585e+02
   638.5000 0.07916391    5.10679759e+02
   639.0000 0.07922590    5.35413965e+02
   639.5000 0.07928789    5.62160425e+02
   640.0000 0.07934988    5.91211582e+02
   640.5000 0.07941188    6.22911761e+02
   641.0000 0.07947387    6.57653703e+02
   641.5000 0.07953586    6.95877597e+02
   642.0000 0.07959785    7.38074583e+02
   642.5000 0.07965984    7.84794807e+02
   643.0000 0.07972184    8.36659026e+02
   643.5000 0.07978383    8.94372485e+02
   644.0000 0.07984582    9.58739965e+02
   644.5000 0.07990781    1.03068094e+03
   645.0000 0.07996980    1.11124360e+03
   645.5000 0.08003180    1.20161573e+03
   646.0000 0.08009379    1.30312915e+03
   646.5000 0.08015578    1.41725237e+03
   647.0000 0.08021777    1.54556276e+03
   647.5000 0.08027977    1.68968535e+03
   648.0000 0.08034176    1.85117912e+03
   648.5000 0.08040375    2.03134488e+03
   649.0000 0.08046574    2.23092268e+03
   649.5000 0.08052773    2.44964556e+03
   650.0000 0.08058973    2.68562987e+03
   650.5000 0.08065172    2.93462390e+03
   651.0000 0.08071371    3.18922424e+03
   651.5000 0.08077570    3.43830634e+03
   652.0000 0.08083769    3.66706954e+03
   652.5000 0.08089969    3.85815477e+03
   653.0000 0.08096168    3.99408863e+03
   653.5000 0.08102367    4.06074148e+03
   654.0000 0.08108566    4.05075549e+03
   654.5000 0.08114765    3.96553366e+03
   655.0000 0.08120965    3.81485053e+03
   655.5000 0.08127164    3.61427460e+03
   656.0000 0.08133363    3.38158304e+03
   656.5000 0.08139562    3.13354010e+03
   657.0000 0.08145762    2.88386550e+03
   657.5000 0.08151961    2.64249429e+03
   658.0000 0.08158160    2.41577303e+03
   658.5000 0.08164359    2.20713202e+03
   659.0000 0.08170558    2.01787804e+03
   659.5000 0.08176758    1.84790814e+03
   660.0000 0.08182957    1.69626803e+03
   660.5000 0.08189156    1.56155053e+03
   661.0000 0.08195355    1.44216002e+03
   661.5000 0.08201554    1.33647701e+03
   662.0000 0.08207754    1.24295313e+03
   662.5000 0.08213953    1.16016035e+03
   663.0000 0.08220152    1.08681160e+03
   663.5000 0.08226351    1.02176415e+03
   664.0000 0.08232550    9.64013465e+02
   664.5000 0.08238750    9.12682193e+02
   665.0000 0.08244949    8.67007200e+02
   665.5000 0.08251148    8.26326272e+02
   666.0000 0.08257347    7.90065454e+02
   666.5000 0.08263547    7.57727445e+02
   667.0000 0.08269746    7.28881236e+02
   667.5000 0.08275945    7.03153012e+02
   668.0000 0.08282144    6.80218242e+02
   668.5000 0.08288343    6.59794870e+02
   669.0000 0.08294543    6.41637458e+02
   669.5000 0.08300742    6.25532186e+02
   670.0000 0.08306941    6.11292578e+02
   670.5000 0.08313140    5.98755862e+02
   671.0000 0.08319339    5.87779856e+02
   671.5000 0.08325539    5.78240323e+02
   672.0000 0.08331738    5.70028712e+02
   672.5000 0.08337937    5.63050223e+02
   673.0000 0.08344136    5.57222165e+02
   673.5000 0.08350335    5.52472548e+02
   674.0000 0.08356535    5.48738878e+02
   674.5000 0.08362734    5.45967134e+02
   675.0000 0.08368933    5.44110889e+02
   675.5000 0.08375132    5.43130562e+02
   676.0000 0.08381331    5.42992788e+02
   676.5000 0.08387531    5.43669872e+02
   677.0000 0.08393730    5.45139341e+02
   677.5000 0.08399929    5.47383565e+02
   678.0000 0.08406128    5.50389441e+02
   678.5000 0.08412328    5.54148142e+02
   679.0000 0.08418527    5.58654914e+02
   679.5000 0.08424726    5.63908924e+02
   680.0000 0.08430925    5.69913155e+02
   680.5000 0.08437124    5.76674335e+02
   681.0000 0.08443324    5.84202917e+02
   681.5000 0.08449523    5.92513090e+02
   682.0000 0.08455722    6.01622827e+02
   682.5000 0.08461921    6.11553981e+02
   683.0000 0.08468120    6.22332405e+02
   683.5000 0.08474320    6.33988126e+02
   684.0000 0.08480519    6.46555553e+02
   684.5000 0.08486718    6.60073730e+02
   685.0000 0.08492917    6.74586639e+02
   685.5000 0.08499116    6.90143559e+02
   686.0000 0.08505316    7.06799469e+02
   686.5000 0.08511515    7.24615534e+02
   687.0000 0.08517714    7.43659644e+02
   687.5000 0.08523913    7.64007040e+02
   688.0000 0.08530113    7.85741035e+02
   688.5000 0.08536312    8.08953821e+02
   689.0000 0.08542511    8.33747409e+02
   689.5000 0.08548710    8.60234684e+02
   690.0000 0.08554909    8.88540627e+02
   690.5000 0.08561109    9.18803695e+02
   691.0000 0.08567308    9.51177407e+02
   691.5000 0.08573507    9.85832167e+02
   692.0000 0.08579706    1.02295734e+03
   692.5000 0.08585905    1.06276365e+03
   693.0000 0.08592105    1.10548593e+03
   693.5000 0.08598304    1.15138630e+03
   694.0000 0.08604503    1.20075782e+03
   694.5000 0.08610702    1.25392877e+03
   695.0000 0.08616901    1.31126751e+03
   695.5000 0.08623101    1.37318821e+03
   696.0000 0.08629300    1.44015752e+03
   696.5000 0.08635499    1.51270227e+03
   697.0000 0.08641698    1.59141848e+03
   697.5000 0.08647898    1.67698195e+03
   698.0000 0.08654097    1.77016059e+03
   698.5000 0.08660296    1.87182884e+03
   699.0000 0.08666495    1.98298455e+03
   699.5000 0.08672694    2.10476883e+03
   700.0000 0.08678894    2.23848907e+03
   700.5000 0.08685093    2.38564593e+03
   701.0000 0.08691292    2.54796451e+03
   701.5000 0.08697491    2.72743039e+03
   702.0000 0.08703690    2.92633068e+03
   702.5000 0.08709890    3.14730012e+03
   703.0000 0.08716089    3.39337175e+03
   703.5000 0.08722288    3.66803045e+03
   704.0000 0.08728487    3.97526615e+03
   704.5000 0.08734686    4.31962055e+03
   705.0000 0.08740886    4.70621692e+03
   705.5000 0.08747085    5.14075521e+03
   706.0000 0.08753284    5.62944465e+03
   706.5000 0.08759483    6.17883024e+03
   707.0000 0.08765682    6.79544888e+03
   707.5000 0.08771882    7.48522404e+03
   708.0000 0.08778081    8.25248046e+03
   708.5000 0.08784280    9.09844249e+03
   709.0000 0.08790479    1.00190995e+04
   709.5000 0.08796679    1.10024253e+04
   710.0000 0.08802878    1.20251921e+04
   710.5000 0.08809077    1.30500830e+04
   711.0000 0.08815276    1.40244237e+04
   711.5000 0.08821475    1.48823603e+04
   712.0000 0.08827675    1.55520845e+04
   712.5000 0.08833874    1.59681394e+04
   713.0000 0.08840073    1.60860072e+04
   713.5000 0.08846272    1.58936727e+04
   714.0000 0.08852471    1.54149845e+04
   714.5000 0.08858671    1.47031800e+04
   715.0000 0.08864870    1.38276760e+04
   715.5000 0.08871069    1.28597420e+04
   716.0000 0.08877268    1.18617221e+04
   716.5000 0.08883467    1.08815937e+04
   717.0000 0.08889667    9.95214433e+03
   717.5000 0.08895866    9.09296668e+03
   718.0000 0.08902065    8.31356607e+03
   718.5000 0.08908264    7.61647046e+03
   719.0000 0.08914464    6.99981474e+03
   719.5000 0.08920663    6.45926209e+03
   720.0000 0.08926862    5.98932068e+03
   720.5000 0.08933061    5.58418231e+03
   721.0000 0.08939260    5.23821057e+03
   721.5000 0.08945460    4.94618094e+03
   722.0000 0.08951659    4.70334386e+03
   722.5000 0.08957858    4.50535312e+03
   723.0000 0.08964057    4.34808088e+03
   723.5000 0.08970256    4.22732810e+03
   724.0000 0.08976456    4.13844122e+03
   724.5000 0.08982655    4.07586821e+03
   725.0000 0.08988854    4.03273678e+03
   725.5000 0.08995053    4.00061030e+03
   726.0000 0.09001252    3.96964303e+03
   726.5000 0.09007452    3.92934468e+03
   727.0000 0.09013651    3.86999414e+03
   727.5000 0.09019850    3.78440642e+03
   728.0000 0.09026049    3.66942487e+03
   728.5000 0.09032249    3.52647097e+03
   729.0000 0.09038448    3.36087483e+03
   729.5000 0.09044647    3.18029971e+03
   730.0000 0.09050846    2.99293822e+03
   730.5000 0.09057045    2.80609127e+03
   731.0000 0.09063245    2.62539919e+03
   731.5000 0.09069444    2.45466785e+03
   732.0000 0.09075643    2.29607431e+03
   732.5000 0.09081842    2.15053504e+03
   733.0000 0.09088041    2.01808858e+03
   733.5000 0.09094241    1.89821956e+03
   734.0000 0.09100440    1.79010190e+03
   734.5000 0.09106639    1.69276689e+03
   735.0000 0.09112838    1.60521122e+03
   735.5000 0.09119037    1.52646168e+03
   736.0000 0.09125237    1.45561047e+03
   736.5000 0.09131436    1.39183154e+03
   737.0000 0.09137635    1.33438541e+03
   737.5000 0.09143834    1.28261721e+03
   738.0000 0.09150033    1.23595120e+03
   738.5000 0.09156233    1.19388374e+03
   739.0000 0.09162432    1.15597565e+03
   739.5000 0.09168631    1.12184492e+03
   740.0000 0.09174830    1.09115983e+03
   740.5000 0.09181030    1.06363281e+03
   741.0000 0.09187229    1.03901502e+03
   741.5000 0.09193428    1.01709160e+03
   742.0000 0.09199627    9.97677614e+02
   742.5000 0.09205826    9.80614579e+02
   743.0000 0.09212026    9.65767519e+02
   743.5000 0.09218225    9.53022482e+02
   744.0000 0.09224424    9.42284470e+02
   744.5000 0.09230623    9.33475737e+02
   745.0000 0.09236822    9.26534389e+02
   745.5000 0.09243022    9.21413281e+02
   746.0000 0.09249221    9.18079158e+02
   746.5000 0.09255420    9.16512026e+02
   747.0000 0.09261619    9.16704742e+02
   747.5000 0.09267818    9.18662797e+02
   748.0000 0.09274018    9.22404295e+02
   748.5000 0.09280217    9.27960121e+02
   749.0000 0.09286416    9.35374304e+02
   749.5000 0.09292615    9.44704569e+02
   750.0000 0.09298815    9.56023109e+02
   750.5000 0.09305014    9.69417570e+02
   751.0000 0.09311213    9.84992294e+02
   751.5000 0.09317412    1.00286982e+03
   752.0000 0.09323611    1.02319272e+03
   752.5000 0.09329811    1.04612574e+03
   753.0000 0.09336010    1.07185838e+03
   753.5000 0.09342209    1.10060795e+03
   754.0000 0.09348408    1.13262308e+03
   754.5000 0.09354607    1.16818801e+03
   755.0000 0.09360807    1.20762740e+03
   755.5000 0.09367006    1.25131224e+03
   756.0000 0.09373205    1.29966654e+03
   756.5000 0.09379404    1.35317540e+03
   757.0000 0.09385603    1.41239428e+03
   757.5000 0.09391803    1.47796006e+03
   758.0000 0.09398002    1.55060383e+03
   758.5000 0.09404201    1.63116598e+03
   759.0000 0.09410400    1.72061364e+03
   759.5000 0.09416600    1.82006102e+03
   760.0000 0.09422799    1.93079270e+03
   760.5000 0.09428998    2.05429012e+03
   761.0000 0.09435197    2.19226119e+03
   761.5000 0.09441396    2.34667245e+03
   762.0000 0.09447596    2.51978253e+03
   762.5000 0.09453795    2.71417446e+03
   763.0000 0.09459994    2.93278225e+03
   763.5000 0.09466193    3.17890391e+03
   764.0000 0.09472392    3.45618847e+03
   764.5000 0.09478592    3.76857656e+03
   765.0000 0.09484791    4.12016421e+03
   765.5000 0.09490990    4.51494472e+03
   766.0000 0.09497189    4.95636675e+03
   766.5000 0.09503388    5.44663043e+03
   767.0000 0.09509588    5.98563747e+03
   767.5000 0.09515787    6.56953656e+03
   768.0000 0.09521986    7.18889512e+03
   768.5000 0.09528185    7.82672523e+03
   769.0000 0.09534384    8.45691748e+03
   769.5000 0.09540584    9.04402526e+03
   770.0000 0.09546783    9.54555420e+03
   770.5000 0.09552982    9.91753452e+03
   771.0000 0.09559181    1.01228802e+04
   771.5000 0.09565381    1.01402048e+04
   772.0000 0.09571580    9.96959770e+03
   772.5000 0.09577779    9.63267592e+03
   773.0000 0.09583978    9.16688571e+03
   773.5000 0.09590177    8.61671114e+03
   774.0000 0.09596377    8.02528740e+03
   774.5000 0.09602576    7.42877341e+03
   775.0000 0.09608775    6.85400209e+03
   775.5000 0.09614974    6.31863727e+03
   776.0000 0.09621173    5.83267558e+03
   776.5000 0.09627373    5.40033619e+03
   777.0000 0.09633572    5.02176919e+03
   777.5000 0.09639771    4.69434479e+03
   778.0000 0.09645970    4.41349538e+03
   778.5000 0.09652169    4.17319789e+03
   779.0000 0.09658369    3.96624895e+03
   779.5000 0.09664568    3.78452404e+03
   780.0000 0.09670767    3.61941595e+03
   780.5000 0.09676966    3.46257742e+03
   781.0000 0.09683166    3.30692129e+03
   781.5000 0.09689365    3.14760914e+03
   782.0000 0.09695564    2.98263496e+03
   782.5000 0.09701763    2.81272526e+03
   783.0000 0.09707962    2.64059333e+03
   783.5000 0.09714162    2.46987880e+03
   784.0000 0.09720361    2.30417331e+03
   784.5000 0.09726560    2.14638420e+03
   785.0000 0.09732759    1.99847701e+03
   785.5000 0.09738958    1.86149911e+03
   786.0000 0.09745158    1.73575113e+03
   786.5000 0.09751357    1.62100056e+03
   787.0000 0.09757556    1.51667719e+03
   787.5000 0.09763755    1.42202615e+03
   788.0000 0.09769954    1.33621615e+03
   788.5000 0.09776154    1.25840996e+03
   789.0000 0.09782353    1.18780656e+03
   789.5000 0.09788552    1.12366383e+03
   790.0000 0.09794751    1.06530848e+03
   790.5000 0.09800951    1.01213823e+03
   791.0000 0.09807150    9.63619469e+02
   791.5000 0.09813349    9.19282680e+02
   792.0000 0.09819548    8.78716755e+02
   792.5000 0.09825747    8.41563205e+02
   793.0000 0.09831947    8.07510587e+02
   793.5000 0.09838146    7.76289428e+02
   794.0000 0.09844345    7.47667747e+02
   794.5000 0.09850544    7.21447171e+02
   795.0000 0.09856743    6.97459652e+02
   795.5000 0.09862943    6.75564697e+02
   796.0000 0.09869142    6.55647035e+02
   796.5000 0.09875341    6.37614609e+02
   797.0000 0.09881540    6.21396712e+02
   797.5000 0.09887739    6.06942033e+02
   798.0000 0.09893939    5.94216271e+02
   798.5000 0.09900138    5.83198794e+02
   799.0000 0.09906337    5.73877610e+02
   799.5000 0.09912536    5.66241635e+02
   800.0000 0.09918736    5.60268936e+02
   800.5000 0.09924935    5.55909480e+02
   801.0000 0.09931134    5.53061132e+02
   801.5000 0.09937333    5.51538861e+02
   802.0000 0.09943532    5.51039928e+02
   802.5000 0.09949732    5.51112915e+02
   803.0000 0.09955931    5.51145159e+02
   803.5000 0.09962130    5.50388302e+02
   804.0000 0.09968329    5.48038678e+02
   804.5000 0.09974528    5.43371498e+02
   805.0000 0.09980728    5.35897061e+02
   805.5000 0.09986927    5.25481149e+02
   806.0000 0.09993126    5.12375206e+02
   806.5000 0.09999325    4.97141507e+02
   807.0000 0.10005524    4.80508912e+02
   807.5000 0.10011724    4.63219882e+02
   808.0000 0.10017923    4.45917476e+02
   808.5000 0.10024122    4.29089786e+02
   809.0000 0.10030321    4.13063101e+02
   809.5000 0.10036520    3.98024215e+02
   810.0000 0.10042720    3.84053888e+02
   810.5000 0.10048919    3.71159888e+02
   811.0000 0.10055118    3.59304239e+02
   811.5000 0.10061317    3.48423377e+02
   812.0000 0.10067517    3.38441928e+02
   812.5000 0.10073716    3.29281515e+02
   813.0000 0.10079915    3.20866011e+02
   813.5000 0.10086114    3.13124401e+02
   814.0000 0.10092313    3.05992115e+02
   814.5000 0.10098513    2.99411431e+02
   815.0000 0.10104712    2.93331338e+02
   815.5000 0.10110911    2.87707119e+02
   816.0000 0.10117110    2.82499802e+02
   816.5000 0.10123309    2.77675584e+02
   817.0000 0.10129509    2.73205262e+02
   817.5000 0.10135708    2.69063713e+02
   818.0000 0.10141907    2.65229436e+02
   818.5000 0.10148106    2.61684142e+02
   819.0000 0.10154305    2.58412415e+02
   819.5000 0.10160505    2.55401424e+02
   820.0000 0.10166704    2.52640687e+02
   820.5000 0.10172903    2.50121879e+02
   821.0000 0.10179102    2.47838694e+02
   821.5000 0.10185302    2.45786729e+02
   822.0000 0.10191501    2.43963426e+02
   822.5000 0.10197700    2.42368030e+02
   823.0000 0.10203899    2.41001594e+02
   823.5000 0.10210098    2.39867017e+02
   824.0000 0.10216298    2.38969108e+02
   824.5000 0.10222497    2.38314701e+02
   825.0000 0.10228696    2.37912796e+02
   825.5000 0.10234895    2.37774756e+02
   826.0000 0.10241094    2.37914544e+02
   826.5000 0.10247294    2.38349018e+02
   827.0000 0.10253493    2.39098291e+02
   827.5000 0.10259692    2.40186162e+02
   828.0000 0.10265891    2.41640622e+02
   828.5000 0.10272090    2.43494472e+02
   829.0000 0.10278290    2.45786025e+02
   829.5000 0.10284489    2.48559953e+02
   830.0000 0.10290688    2.51868245e+02
   830.5000 0.10296887    2.55771317e+02
   831.0000 0.10303087    2.60339264e+02
   831.5000 0.10309286    2.65653224e+02
   832.0000 0.10315485    2.71806835e+02
   832.5000 0.10321684    2.78907676e+02
   833.0000 0.10327883    2.87078526e+02
   833.5000 0.10334083    2.96458160e+02
   834.0000 0.10340282    3.07201189e+02
   834.5000 0.10346481    3.19476178e+02
   835.0000 0.10352680    3.33460846e+02
   835.5000 0.10358879    3.49332580e+02
   836.0000 0.10365079    3.67251772e+02
   836.5000 0.10371278    3.87334719e+02
   837.0000 0.10377477    4.09612371e+02
   837.5000 0.10383676    4.33971750e+02
   838.0000 0.10389875    4.60079751e+02
   838.5000 0.10396075    4.87296058e+02
   839.0000 0.10402274    5.14594551e+02
   839.5000 0.10408473    5.40529620e+02
   840.0000 0.10414672    5.63297291e+02
   840.5000 0.10420871    5.80934685e+02
   841.0000 0.10427071    5.91657731e+02
   841.5000 0.10433270    5.94259579e+02
   842.0000 0.10439469    5.88424162e+02
   842.5000 0.10445668    5.74814185e+02
   843.0000 0.10451868    5.54890779e+02
   843.5000 0.10458067    5.30551031e+02
   844.0000 0.10464266    5.03737195e+02
   844.5000 0.10470465    4.76144049e+02
   845.0000 0.10476664    4.49072166e+02
   845.5000 0.10482864    4.23406758e+02
   846.0000 0.10489063    3.99672742e+02
   846.5000 0.10495262    3.78119670e+02
   847.0000 0.10501461    3.58806415e+02
   847.5000 0.10507660    3.41671410e+02
   848.0000 0.10513860    3.26584839e+02
   848.5000 0.10520059    3.13384461e+02
   849.0000 0.10526258    3.01898635e+02
   849.5000 0.10532457    2.91960167e+02
   850.0000 0.10538656    2.83413966e+02
   850.5000 0.10544856    2.76120741e+02
   851.0000 0.10551055    2.69958282e+02
   851.5000 0.10557254    2.64821345e+02
   852.0000 0.10563453    2.60620821e+02
   852.5000 0.10569653    2.57282562e+02
   853.0000 0.10575852    2.54746147e+02
   853.5000 0.10582051    2.52963699e+02
   854.0000 0.10588250    2.51898844e+02
   854.5000 0.10594449    2.51525852e+02
   855.0000 0.10600649    2.51828968e+02
   855.5000 0.10606848    2.52801954e+02
   856.0000 0.10613047    2.54447822e+02
   856.5000 0.10619246    2.56778786e+02
   857.0000 0.10625445    2.59816414e+02
   857.5000 0.10631645    2.63591991e+02
   858.0000 0.10637844    2.68147117e+02
   858.5000 0.10644043    2.73534532e+02
   859.0000 0.10650242    2.79819205e+02
   859.5000 0.10656441    2.87079702e+02
   860.0000 0.10662641    2.95409866e+02
   860.5000 0.10668840    3.04920821e+02
   861.0000 0.10675039    3.15743345e+02
   861.5000 0.10681238    3.28030596e+02
   862.0000 0.10687438    3.41961200e+02
   862.5000 0.10693637    3.57742621e+02
   863.0000 0.10699836    3.75614677e+02
   863.5000 0.10706035    3.95852911e+02
   864.0000 0.10712234    4.18771324e+02
   864.5000 0.10718434    4.44723584e+02
   865.0000 0.10724633    4.74101325e+02
   865.5000 0.10730832    5.07327292e+02
   866.0000 0.10737031    5.44839953e+02
   866.5000 0.10743230    5.87064641e+02
   867.0000 0.10749430    6.34364449e+02
   867.5000 0.10755629    6.86962404e+02
   868.0000 0.10761828    7.44826012e+02
   868.5000 0.10768027    8.07508343e+02
   869.0000 0.10774226    8.73950203e+02
   869.5000 0.10780426    9.42270046e+02
   870.0000 0.10786625    1.00960412e+03
   870.5000 0.10792824    1.07210056e+03
   871.0000 0.10799023    1.12519051e+03
   871.5000 0.10805222    1.16421186e+03
   872.0000 0.10811422    1.18531751e+03
   872.5000 0.10817621    1.18640384e+03
   873.0000 0.10823820    1.16768325e+03
   873.5000 0.10830019    1.13163086e+03
   874.0000 0.10836219    1.08232856e+03
   874.5000 0.10842418    1.02450591e+03
   875.0000 0.10848617    9.62648232e+02
   875.5000 0.10854816    9.00408431e+02
   876.0000 0.10861015    8.40365892e+02
   876.5000 0.10867215    7.84048843e+02
   877.0000 0.10873414    7.32105360e+02
   877.5000 0.10879613    6.84535352e+02
   878.0000 0.10885812    6.40934146e+02
   878.5000 0.10892011    6.00720796e+02
   879.0000 0.10898211    5.63327717e+02
   879.5000 0.10904410    5.28326628e+02
   880.0000 0.10910609    4.95475254e+02
   880.5000 0.10916808    4.64692609e+02
   881.0000 0.10923007    4.35993283e+02
   881.5000 0.10929207    4.09417208e+02
   882.0000 0.10935406    3.84979610e+02
   882.5000 0.10941605    3.62648098e+02
   883.0000 0.10947804    3.42341353e+02
   883.5000 0.10954004    3.23939722e+02
   884.0000 0.10960203    3.07299574e+02
   884.5000 0.10966402    2.92266555e+02
   885.0000 0.10972601    2.78685762e+02
   885.5000 0.10978800    2.66408563e+02
   886.0000 0.10985000    2.55296594e+02
   886.5000 0.10991199    2.45223688e+02
   887.0000 0.10997398    2.36076402e+02
   887.5000 0.11003597    2.27753698e+02
   888.0000 0.11009796    2.20166137e+02
   888.5000 0.11015996    2.13234849e+02
   889.0000 0.11022195    2.06890427e+02
   889.5000 0.11028394    2.01071845e+02
   890.0000 0.11034593    1.95725441e+02
   890.5000 0.11040792    1.90803998e+02
   891.0000 0.11046992    1.86265922e+02
   891.5000 0.11053191    1.82074516e+02
   892.0000 0.11059390    1.78197352e+02
   892.5000 0.11065589    1.74605720e+02
   893.0000 0.11071789    1.71274156e+02
   893.5000 0.11077988    1.68180032e+02
   894.0000 0.11084187    1.65303199e+02
   894.5000 0.11090386    1.62625686e+02
   895.0000 0.11096585    1.60131435e+02
   895.5000 0.11102785    1.57806072e+02
   896.0000 0.11108984    1.55636713e+02
   896.5000 0.11115183    1.53611788e+02
   897.0000 0.11121382    1.51720903e+02
   897.5000 0.11127581    1.49954701e+02
   898.0000 0.11133781    1.48304758e+02
   898.5000 0.11139980    1.46763483e+02
   899.0000 0.11146179    1.45324034e+02
   899.5000 0.11152378    1.43980246e+02
   900.0000 0.11158577    1.42726566e+02
   900.5000 0.11164777    1.41558000e+02
   901.0000 0.11170976    1.40470061e+02
   901.5000 0.11177175    1.39458733e+02
   902.0000 0.11183374    1.38520430e+02
   902.5000 0.11189573    1.37651973e+02
   903.0000 0.11195773    1.36850556e+02
   903.5000 0.11201972    1.36113735e+02
   904.0000 0.11208171    1.35439405e+02
   904.5000 0.11214370    1.34825789e+02
   905.0000 0.11220570    1.34271432e+02
   905.5000 0.11226769    1.33775194e+02
   906.0000 0.11232968    1.33336250e+02
   906.5000 0.11239167    1.32954096e+02
   907.0000 0.11245366    1.32628553e+02
   907.5000 0.11251566    1.32359783e+02
   908.0000 0.11257765    1.32148305e+02
   908.5000 0.11263964    1.31995018e+02
   909.0000 0.11270163    1.31901232e+02
   909.5000 0.11276362    1.31868704e+02
   910.0000 0.11282562    1.31899684e+02
   910.5000 0.11288761    1.31996966e+02
   911.0000 0.11294960    1.32163958e+02
   911.5000 0.11301159    1.32404760e+02
   912.0000 0.11307358    1.32724254e+02
   912.5000 0.11313558    1.33128213e+02
   913.0000 0.11319757    1.33623438e+02
   913.5000 0.11325956    1.34217903e+02
   914.0000 0.11332155    1.34920936e+02
   914.5000 0.11338355    1.35743424e+02
   915.0000 0.11344554    1.36698050e+02
   915.5000 0.11350753    1.37799558e+02
   916.0000 0.11356952    1.39065047e+02
   916.5000 0.11363151    1.40514283e+02
   917.0000 0.11369351    1.42170013e+02
   917.5000 0.11375550    1.44058244e+02
   918.0000 0.11381749    1.46208432e+02
   918.5000 0.11387948    1.48653484e+02
   919.0000 0.11394147    1.51429405e+02
   919.5000 0.11400347    1.54574366e+02
   920.0000 0.11406546    1.58126809e+02
   920.5000 0.11412745    1.62122082e+02
   921.0000 0.11418944    1.66586930e+02
   921.5000 0.11425143    1.71531034e+02
   922.0000 0.11431343    1.76934900e+02
   922.5000 0.11437542    1.82733932e+02
   923.0000 0.11443741    1.88799897e+02
   923.5000 0.11449940    1.94923600e+02
   924.0000 0.11456140    2.00806148e+02
   924.5000 0.11462339    2.06069307e+02
   925.0000 0.11468538    2.10294788e+02
   925.5000 0.11474737    2.13093873e+02
   926.0000 0.11480936    2.14192756e+02
   926.5000 0.11487136    2.13503443e+02
   927.0000 0.11493335    2.11148919e+02
   927.5000 0.11499534    2.07430410e+02
   928.0000 0.11505733    2.02752523e+02
   928.5000 0.11511932    1.97538647e+02
   929.0000 0.11518132    1.92165142e+02
   929.5000 0.11524331    1.86926463e+02
   930.0000 0.11530530    1.82028044e+02
   930.5000 0.11536729    1.77596593e+02
   931.0000 0.11542928    1.73697504e+02
   931.5000 0.11549128    1.70352411e+02
   932.0000 0.11555327    1.67553359e+02
   932.5000 0.11561526    1.65272500e+02
   933.0000 0.11567725    1.63467449e+02
   933.5000 0.11573924    1.62083097e+02
   934.0000 0.11580124    1.61051051e+02
   934.5000 0.11586323    1.60288322e+02
   935.0000 0.11592522    1.59697468e+02
   935.5000 0.11598721    1.59170685e+02
   936.0000 0.11604921    1.58599644e+02
   936.5000 0.11611120    1.57890561e+02
   937.0000 0.11617319    1.56980519e+02
   937.5000 0.11623518    1.55848649e+02
   938.0000 0.11629717    1.54516888e+02
   938.5000 0.11635917    1.53039815e+02
   939.0000 0.11642116    1.51488212e+02
   939.5000 0.11648315    1.49932908e+02
   940.0000 0.11654514    1.48433575e+02
   940.5000 0.11660713    1.47033722e+02
   941.0000 0.11666913    1.45760579e+02
   941.5000 0.11673112    1.44627738e+02
   942.0000 0.11679311    1.43638713e+02
   942.5000 0.11685510    1.42790313e+02
   943.0000 0.11691709    1.42075359e+02
   943.5000 0.11697909    1.41484649e+02
   944.0000 0.11704108    1.41008274e+02
   944.5000 0.11710307    1.40636439e+02
   945.0000 0.11716506    1.40359938e+02
   945.5000 0.11722706    1.40170396e+02
   946.0000 0.11728905    1.40060365e+02
   946.5000 0.11735104    1.40023337e+02
   947.0000 0.11741303    1.40053711e+02
   947.5000 0.11747502    1.40146733e+02
   948.0000 0.11753702    1.40298436e+02
   948.5000 0.11759901    1.40505575e+02
   949.0000 0.11766100    1.40765573e+02
   949.5000 0.11772299    1.41076473e+02
   950.0000 0.11778498    1.41436904e+02
   950.5000 0.11784698    1.41846054e+02
   951.0000 0.11790897    1.42303662e+02
   951.5000 0.11797096    1.42810010e+02
   952.0000 0.11803295    1.43365936e+02
   952.5000 0.11809494    1.43972849e+02
   953.0000 0.11815694    1.44632759e+02
   953.5000 0.11821893    1.45348310e+02
   954.0000 0.11828092    1.46122811e+02
   954.5000 0.11834291    1.46960266e+02
   955.0000 0.11840491    1.47865385e+02
   955.5000 0.11846690    1.48843552e+02
   956.0000 0.11852889    1.49900723e+02
   956.5000 0.11859088    1.51043205e+02
   957.0000 0.11865287    1.52277243e+02
   957.5000 0.11871487    1.53608306e+02
   958.0000 0.11877686    1.55039967e+02
   958.5000 0.11883885    1.56572214e+02
   959.0000 0.11890084    1.58199102e+02
   959.5000 0.11896283    1.59905789e+02
   960.0000 0.11902483    1.61665280e+02
   960.5000 0.11908682    1.63435764e+02
   961.0000 0.11914881    1.65160039e+02
   961.5000 0.11921080    1.66768913e+02
   962.0000 0.11927279    1.68189968e+02
   962.5000 0.11933479    1.69361029e+02
   963.0000 0.11939678    1.70244757e+02
   963.5000 0.11945877    1.70838651e+02
   964.0000 0.11952076    1.71175838e+02
   964.5000 0.11958275    1.71316282e+02
   965.0000 0.11964475    1.71332518e+02
   965.5000 0.11970674    1.71295684e+02
   966.0000 0.11976873    1.71265924e+02
   966.5000 0.11983072    1.71288210e+02
   967.0000 0.11989272    1.71392419e+02
   967.5000 0.11995471    1.71595795e+02
   968.0000 0.12001670    1.71906172e+02
   968.5000 0.12007869    1.72325027e+02
   969.0000 0.12014068    1.72849924e+02
   969.5000 0.12020268    1.73476294e+02
   970.0000 0.12026467    1.74198642e+02
   970.5000 0.12032666    1.75011302e+02
   971.0000 0.12038865    1.75908890e+02
   971.5000 0.12045064    1.76886542e+02
   972.0000 0.12051264    1.77940028e+02
   972.5000 0.12057463    1.79065780e+02
   973.0000 0.12063662    1.80260881e+02
   973.5000 0.12069861    1.81523026e+02
   974.0000 0.12076060    1.82850473e+02
   974.5000 0.12082260    1.84241998e+02
   975.0000 0.12088459    1.85696848e+02
   975.5000 0.12094658    1.87214696e+02
   976.0000 0.12100857    1.88795605e+02
   976.5000 0.12107057    1.90440001e+02
   977.0000 0.12113256    1.92148644e+02
   977.5000 0.12119455    1.93922611e+02
   978.0000 0.12125654    1.95763280e+02
   978.5000 0.12131853    1.97672321e+02
   979.0000 0.12138053    1.99651691e+02
   979.5000 0.12144252    2.01703632e+02
   980.0000 0.12150451    2.03830672e+02
   980.5000 0.12156650    2.06035631e+02
   981.0000 0.12162849    2.08321631e+02
   981.5000 0.12169049    2.10692109e+02
   982.0000 0.12175248    2.13150830e+02
   982.5000 0.12181447    2.15701910e+02
   983.0000 0.12187646    2.18349838e+02
   983.5000 0.12193845    2.21099504e+02
   984.0000 0.12200045    2.23956231e+02
   984.5000 0.12206244    2.26925811e+02
   985.0000 0.12212443    2.30014552e+02
   985.5000 0.12218642    2.33229319e+02
   986.0000 0.12224842    2.36577598e+02
   986.5000 0.12231041    2.40067555e+02
   987.0000 0.12237240    2.43708110e+02
   987.5000 0.12243439    2.47509021e+02
   988.0000 0.12249638    2.51480981e+02
   988.5000 0.12255838    2.55635724e+02
   989.0000 0.12262037    2.59986155e+02
   989.5000 0.12268236    2.64546489e+02
   990.0000 0.12274435    2.69332418e+02
   990.5000 0.12280634    2.74361303e+02
   991.0000 0.12286834    2.79652382e+02
   991.5000 0.12293033    2.85227019e+02
   992.0000 0.12299232    2.91108975e+02
   992.5000 0.12305431    2.97324716e+02
   993.0000 0.12311630    3.03903745e+02
   993.5000 0.12317830    3.10878954e+02
   994.0000 0.12324029    3.18286976e+02
   994.5000 0.12330228    3.26168515e+02
   995.0000 0.12336427    3.34568580e+02
   995.5000 0.12342626    3.43536549e+02
   996.0000 0.12348826    3.53125920e+02
   996.5000 0.12355025    3.63393520e+02
   997.0000 0.12361224    3.74397888e+02
   997.5000 0.12367423    3.86196415e+02
   998.0000 0.12373623    3.98840755e+02
   998.5000 0.12379822    4.12370090e+02
   999.0000 0.12386021    4.26802099e+02
   999.5000 0.12392220    4.42122289e+02
  1000.0000 0.12398419    4.58273838e+02
  1000.5000 0.12404619    4.75152105e+02
  1001.0000 0.12410818    4.92609767e+02
  1001.5000 0.12417017    5.10478128e+02
  1002.0000 0.12423216    5.28605478e+02
  1002.5000 0.12429415    5.46904713e+02
  1003.0000 0.12435615    5.65394463e+02
  1003.5000 0.12441814    5.84218168e+02
  1004.0000 0.12448013    6.03636058e+02
  1004.5000 0.12454212    6.23998499e+02
  1005.0000 0.12460411    6.45715108e+02
  1005.5000 0.12466611    6.69229909e+02
  1006.0000 0.12472810    6.95005265e+02
  1006.5000 0.12479009    7.23513351e+02
  1007.0000 0.12485208    7.55234038e+02
  1007.5000 0.12491408    7.90658949e+02
  1008.0000 0.12497607    8.30301170e+02
  1008.5000 0.12503806    8.74709113e+02
  1009.0000 0.12510005    9.24482418e+02
  1009.5000 0.12516204    9.80287881e+02
  1010.0000 0.12522404    1.04287382e+03
  1010.5000 0.12528603    1.11308156e+03
  1011.0000 0.12534802    1.19185303e+03
  1011.5000 0.12541001    1.28023300e+03
  1012.0000 0.12547200    1.37936527e+03
  1012.5000 0.12553400    1.49048144e+03
  1013.0000 0.12559599    1.61488159e+03
  1013.5000 0.12565798    1.75390345e+03
  1014.0000 0.12571997    1.90887015e+03
  1014.5000 0.12578196    2.08099305e+03
  1015.0000 0.12584396    2.27118745e+03
  1015.5000 0.12590595    2.47974602e+03
  1016.0000 0.12596794    2.70582179e+03
  1016.5000 0.12602993    2.94671347e+03
  1017.0000 0.12609193    3.19702602e+03
  1017.5000 0.12615392    3.44790013e+03
  1018.0000 0.12621591    3.68665174e+03
  1018.5000 0.12627790    3.89727593e+03
  1019.0000 0.12633989    4.06220989e+03
  1019.5000 0.12640189    4.16536306e+03
  1020.0000 0.12646388    4.19572898e+03
  1020.5000 0.12652587    4.15027054e+03
  1021.0000 0.12658786    4.03479224e+03
  1021.5000 0.12664985    3.86237954e+03
  1022.0000 0.12671185    3.65015480e+03
  1022.5000 0.12677384    3.41573331e+03
  1023.0000 0.12683583    3.17453675e+03
  1023.5000 0.12689782    2.93841493e+03
  1024.0000 0.12695981    2.71540297e+03
  1024.5000 0.12702181    2.51016999e+03
  1025.0000 0.12708380    2.32473823e+03
  1025.5000 0.12714579    2.15920186e+03
  1026.0000 0.12720778    2.01232752e+03
  1026.5000 0.12726977    1.88202471e+03
  1027.0000 0.12733177    1.76572866e+03
  1027.5000 0.12739376    1.66074593e+03
  1028.0000 0.12745575    1.56458316e+03
  1028.5000 0.12751774    1.47522918e+03
  1029.0000 0.12757974    1.39132609e+03
  1029.5000 0.12764173    1.31217913e+03
  1030.0000 0.12770372    1.23761510e+03
  1030.5000 0.12776571    1.16776022e+03
  1031.0000 0.12782770    1.10282570e+03
  1031.5000 0.12788970    1.04295966e+03
  1032.0000 0.12795169    9.88178654e+02
  1032.5000 0.12801368    9.38360700e+02
  1033.0000 0.12807567    8.93272228e+02
  1033.5000 0.12813766    8.52606156e+02
  1034.0000 0.12819966    8.16017699e+02
  1034.5000 0.12826165    7.83152294e+02
  1035.0000 0.12832364    7.53664765e+02
  1035.5000 0.12838563    7.27231029e+02
  1036.0000 0.12844762    7.03554259e+02
  1036.5000 0.12850962    6.82367288e+02
  1037.0000 0.12857161    6.63432657e+02
  1037.5000 0.12863360    6.46541315e+02
  1038.0000 0.12869559    6.31510638e+02
  1038.5000 0.12875759    6.18182205e+02
  1039.0000 0.12881958    6.06419577e+02
  1039.5000 0.12888157    5.96106236e+02
  1040.0000 0.12894356    5.87143757e+02
  1040.5000 0.12900555    5.79450256e+02
  1041.0000 0.12906755    5.72959115e+02
  1041.5000 0.12912954    5.67618002e+02
  1042.0000 0.12919153    5.63388157e+02
  1042.5000 0.12925352    5.60243963e+02
  1043.0000 0.12931551    5.58172773e+02
  1043.5000 0.12937751    5.57175000e+02
  1044.0000 0.12943950    5.57264459e+02
  1044.5000 0.12950149    5.58468948e+02
  1045.0000 0.12956348    5.60831037e+02
  1045.5000 0.12962547    5.64409036e+02
  1046.0000 0.12968747    5.69278039e+02
  1046.5000 0.12974946    5.75530899e+02
  1047.0000 0.12981145    5.83278885e+02
  1047.5000 0.12987344    5.92651577e+02
  1048.0000 0.12993544    6.03795330e+02
  1048.5000 0.12999743    6.16869236e+02
  1049.0000 0.13005942    6.32036986e+02
  1049.5000 0.13012141    6.49452362e+02
  1050.0000 0.13018340    6.69235299e+02
  1050.5000 0.13024540    6.91434863e+02
  1051.0000 0.13030739    7.15975694e+02
  1051.5000 0.13036938    7.42586459e+02
  1052.0000 0.13043137    7.70714630e+02
  1052.5000 0.13049336    7.99442843e+02
  1053.0000 0.13055536    8.27438387e+02
  1053.5000 0.13061735    8.52983034e+02
  1054.0000 0.13067934    8.74131488e+02
  1054.5000 0.13074133    8.89014444e+02
  1055.0000 0.13080332    8.96231724e+02
  1055.5000 0.13086532    8.95204117e+02
  1056.0000 0.13092731    8.86332347e+02
  1056.5000 0.13098930    8.70886599e+02
  1057.0000 0.13105129    8.50679880e+02
  1057.5000 0.13111328    8.27669765e+02
  1058.0000 0.13117528    8.03630057e+02
  1058.5000 0.13123727    7.79962872e+02
  1059.0000 0.13129926    7.57646374e+02
  1059.5000 0.13136125    7.37273562e+02
  1060.0000 0.13142325    7.19133795e+02
  1060.5000 0.13148524    7.03302804e+02
  1061.0000 0.13154723    6.89722962e+02
  1061.5000 0.13160922    6.78266442e+02
  1062.0000 0.13167121    6.68779457e+02
  1062.5000 0.13173321    6.61108704e+02
  1063.0000 0.13179520    6.55113367e+02
  1063.5000 0.13185719    6.50667655e+02
  1064.0000 0.13191918    6.47659126e+02
  1064.5000 0.13198117    6.45986797e+02
  1065.0000 0.13204317    6.45561022e+02
  1065.5000 0.13210516    6.46305226e+02
  1066.0000 0.13216715    6.48158157e+02
  1066.5000 0.13222914    6.51074703e+02
  1067.0000 0.13229113    6.55023561e+02
  1067.5000 0.13235313    6.59981089e+02
  1068.0000 0.13241512    6.65921684e+02
  1068.5000 0.13247711    6.72805583e+02
  1069.0000 0.13253910    6.80565086e+02
  1069.5000 0.13260110    6.89090579e+02
  1070.0000 0.13266309    6.98219153e+02
  1070.5000 0.13272508    7.07730845e+02
  1071.0000 0.13278707    7.17359438e+02
  1071.5000 0.13284906    7.26823525e+02
  1072.0000 0.13291106    7.35876887e+02
  1072.5000 0.13297305    7.44365969e+02
  1073.0000 0.13303504    7.52273091e+02
  1073.5000 0.13309703    7.59725971e+02
  1074.0000 0.13315902    7.66969184e+02
  1074.5000 0.13322102    7.74311341e+02
  1075.0000 0.13328301    7.82070290e+02
  1075.5000 0.13334500    7.90533668e+02
  1076.0000 0.13340699    7.99940623e+02
  1076.5000 0.13346898    8.10481193e+02
  1077.0000 0.13353098    8.22306132e+02
  1077.5000 0.13359297    8.35540722e+02
  1078.0000 0.13365496    8.50298409e+02
  1078.5000 0.13371695    8.66692361e+02
  1079.0000 0.13377895    8.84844370e+02
  1079.5000 0.13384094    9.04891155e+02
  1080.0000 0.13390293    9.26988178e+02
  1080.5000 0.13396492    9.51310810e+02
  1081.0000 0.13402691    9.78052233e+02
  1081.5000 0.13408891    1.00741675e+03
  1082.0000 0.13415090    1.03960641e+03
  1082.5000 0.13421289    1.07479776e+03
  1083.0000 0.13427488    1.11310485e+03
  1083.5000 0.13433687    1.15452397e+03
  1084.0000 0.13439887    1.19885726e+03
  1084.5000 0.13446086    1.24561673e+03
  1085.0000 0.13452285    1.29392061e+03
  1085.5000 0.13458484    1.34241124e+03
  1086.0000 0.13464683    1.38924366e+03
  1086.5000 0.13470883    1.43220546e+03
  1087.0000 0.13477082    1.46900872e+03
  1087.5000 0.13483281    1.49772766e+03
  1088.0000 0.13489480    1.51726020e+03
  1088.5000 0.13495679    1.52763011e+03
  1089.0000 0.13501879    1.52998926e+03
  1089.5000 0.13508078    1.52631897e+03
  1090.0000 0.13514277    1.51896955e+03
  1090.5000 0.13520476    1.51022147e+03
  1091.0000 0.13526676    1.50199143e+03
  1091.5000 0.13532875    1.49571056e+03
  1092.0000 0.13539074    1.49233470e+03
  1092.5000 0.13545273    1.49242621e+03
  1093.0000 0.13551472    1.49625774e+03
  1093.5000 0.13557672    1.50390870e+03
  1094.0000 0.13563871    1.51534220e+03
  1094.5000 0.13570070    1.53046093e+03
  1095.0000 0.13576269    1.54914478e+03
  1095.5000 0.13582468    1.57127481e+03
  1096.0000 0.13588668    1.59674763e+03
  1096.5000 0.13594867    1.62548337e+03
  1097.0000 0.13601066    1.65742971e+03
  1097.5000 0.13607265    1.69256355e+03
  1098.0000 0.13613464    1.73089148e+03
  1098.5000 0.13619664    1.77244959e+03
  1099.0000 0.13625863    1.81730316e+03
  1099.5000 0.13632062    1.86554646e+03
  1100.0000 0.13638261    1.91730282e+03
  1100.5000 0.13644461    1.97272508e+03
  1101.0000 0.13650660    2.03199643e+03
  1101.5000 0.13656859    2.09533177e+03
  1102.0000 0.13663058    2.16297952e+03
  1102.5000 0.13669257    2.23522414e+03
  1103.0000 0.13675457    2.31238904e+03
  1103.5000 0.13681656    2.39484038e+03
  1104.0000 0.13687855    2.48299151e+03
  1104.5000 0.13694054    2.57730827e+03
  1105.0000 0.13700253    2.67831531e+03
  1105.5000 0.13706453    2.78660348e+03
  1106.0000 0.13712652    2.90283855e+03
  1106.5000 0.13718851    3.02777138e+03
  1107.0000 0.13725050    3.16224993e+03
  1107.5000 0.13731249    3.30723320e+03
  1108.0000 0.13737449    3.46380765e+03
  1108.5000 0.13743648    3.63320644e+03
  1109.0000 0.13749847    3.81683184e+03
  1109.5000 0.13756046    4.01628157e+03
  1110.0000 0.13762246    4.23337950e+03
  1110.5000 0.13768445    4.47021144e+03
  1111.0000 0.13774644    4.72916663e+03
  1111.5000 0.13780843    5.01298562e+03
  1112.0000 0.13787042    5.32481495e+03
  1112.5000 0.13793242    5.66826873e+03
  1113.0000 0.13799441    6.04749650e+03
  1113.5000 0.13805640    6.46725561e+03
  1114.0000 0.13811839    6.93298410e+03
  1114.5000 0.13818038    7.45086673e+03
  1115.0000 0.13824238    8.02788118e+03
  1115.5000 0.13830437    8.67180277e+03
  1116.0000 0.13836636    9.39113300e+03
  1116.5000 0.13842835    1.01948976e+04
  1117.0000 0.13849034    1.10922339e+04
  1117.5000 0.13855234    1.20916517e+04
  1118.0000 0.13861433    1.31998174e+04
  1118.5000 0.13867632    1.44196823e+04
  1119.0000 0.13873831    1.57477952e+04
  1119.5000 0.13880030    1.71707556e+04
  1120.0000 0.13886230    1.86610708e+04
  1120.5000 0.13892429    2.01732487e+04
  1121.0000 0.13898628    2.16417628e+04
  1121.5000 0.13904827    2.29832376e+04
  1122.0000 0.13911027    2.41050842e+04
  1122.5000 0.13917226    2.49209912e+04
  1123.0000 0.13923425    2.53700961e+04
  1123.5000 0.13929624    2.54331399e+04
  1124.0000 0.13935823    2.51385154e+04
  1124.5000 0.13942023    2.45553093e+04
  1125.0000 0.13948222    2.37767190e+04
  1125.5000 0.13954421    2.29010797e+04
  1126.0000 0.13960620    2.20169893e+04
  1126.5000 0.13966819    2.11953825e+04
  1127.0000 0.13973019    2.04879231e+04
  1127.5000 0.13979218    1.99294234e+04
  1128.0000 0.13985417    1.95419780e+04
  1128.5000 0.13991616    1.93392416e+04
  1129.0000 0.13997815    1.93300620e+04
  1129.5000 0.14004015    1.95212208e+04
  1130.0000 0.14010214    1.99193037e+04
  1130.5000 0.14016413    2.05318097e+04
  1131.0000 0.14022612    2.13675808e+04
  1131.5000 0.14028812    2.24365660e+04
  1132.0000 0.14035011    2.37488246e+04
  1132.5000 0.14041210    2.53125698e+04
  1133.0000 0.14047409    2.71309546e+04
  1133.5000 0.14053608    2.91972644e+04
  1134.0000 0.14059808    3.14882942e+04
  1134.5000 0.14066007    3.39561015e+04
  1135.0000 0.14072206    3.65192320e+04
  1135.5000 0.14078405    3.90559841e+04
  1136.0000 0.14084604    4.14039881e+04
  1136.5000 0.14090804    4.33711933e+04
  1137.0000 0.14097003    4.47614437e+04
  1137.5000 0.14103202    4.54119253e+04
  1138.0000 0.14109401    4.52316563e+04
  1138.5000 0.14115600    4.42254984e+04
  1139.0000 0.14121800    4.24924276e+04
  1139.5000 0.14127999    4.01988972e+04
  1140.0000 0.14134198    3.75396086e+04
  1140.5000 0.14140397    3.47010452e+04
  1141.0000 0.14146597    3.18376432e+04
  1141.5000 0.14152796    2.90623921e+04
  1142.0000 0.14158995    2.64482398e+04
  1142.5000 0.14165194    2.40352035e+04
  1143.0000 0.14171393    2.18391056e+04
  1143.5000 0.14177593    1.98595799e+04
  1144.0000 0.14183792    1.80864009e+04
  1144.5000 0.14189991    1.65040325e+04
  1145.0000 0.14196190    1.50946665e+04
  1145.5000 0.14202389    1.38401229e+04
  1146.0000 0.14208589    1.27229553e+04
  1146.5000 0.14214788    1.17270300e+04
  1147.0000 0.14220987    1.08377737e+04
  1147.5000 0.14227186    1.00422232e+04
  1148.0000 0.14233385    9.32896277e+03
  1148.5000 0.14239585    8.68800433e+03
  1149.0000 0.14245784    8.11064379e+03
  1149.5000 0.14251983    7.58931291e+03
  1150.0000 0.14258182    7.11743734e+03
  1150.5000 0.14264381    6.68930620e+03
  1151.0000 0.14270581    6.29995539e+03
  1151.5000 0.14276780    5.94506499e+03
  1152.0000 0.14282979    5.62086987e+03
  1152.5000 0.14289178    5.32408262e+03
  1153.0000 0.14295378    5.05182725e+03
  1153.5000 0.14301577    4.80158247e+03
  1154.0000 0.14307776    4.57113309e+03
  1154.5000 0.14313975    4.35852853e+03
  1155.0000 0.14320174    4.16204738e+03
  1155.5000 0.14326374    3.98016704e+03
  1156.0000 0.14332573    3.81153780e+03
  1156.5000 0.14338772    3.65496051e+03
  1157.0000 0.14344971    3.50936758e+03
  1157.5000 0.14351170    3.37380644e+03
  1158.0000 0.14357370    3.24742547e+03
  1158.5000 0.14363569    3.12946177e+03
  1159.0000 0.14369768    3.01923056e+03
  1159.5000 0.14375967    2.91611606e+03
  1160.0000 0.14382166    2.81956351e+03
  1160.5000 0.14388366    2.72907229e+03
  1161.0000 0.14394565    2.64418987e+03
  1161.5000 0.14400764    2.56450653e+03
  1162.0000 0.14406963    2.48965076e+03
  1162.5000 0.14413163    2.41928526e+03
  1163.0000 0.14419362    2.35310330e+03
  1163.5000 0.14425561    2.29082568e+03
  1164.0000 0.14431760    2.23219794e+03
  1164.5000 0.14437959    2.17698793e+03
  1165.0000 0.14444159    2.12498367e+03
  1165.5000 0.14450358    2.07599145e+03
  1166.0000 0.14456557    2.02983413e+03
  1166.5000 0.14462756    1.98634970e+03
  1167.0000 0.14468955    1.94538987e+03
  1167.5000 0.14475155    1.90681899e+03
  1168.0000 0.14481354    1.87051293e+03
  1168.5000 0.14487553    1.83635822e+03
  1169.0000 0.14493752    1.80425119e+03
  1169.5000 0.14499951    1.77409729e+03
  1170.0000 0.14506151    1.74581043e+03
  1170.5000 0.14512350    1.71931244e+03
  1171.0000 0.14518549    1.69453260e+03
  1171.5000 0.14524748    1.67140722e+03
  1172.0000 0.14530948    1.64987931e+03
  1172.5000 0.14537147    1.62989832e+03
  1173.0000 0.14543346    1.61141989e+03
  1173.5000 0.14549545    1.59440571e+03
  1174.0000 0.14555744    1.57882344e+03
  1174.5000 0.14561944    1.56464670e+03
  1175.0000 0.14568143    1.55185505e+03
  1175.5000 0.14574342    1.54043416e+03
  1176.0000 0.14580541    1.53037597e+03
  1176.5000 0.14586740    1.52167895e+03
  1177.0000 0.14592940    1.51434845e+03
  1177.5000 0.14599139    1.50839716e+03
  1178.0000 0.14605338    1.50384558e+03
  1178.5000 0.14611537    1.50072268e+03
  1179.0000 0.14617736    1.49906651e+03
  1179.5000 0.14623936    1.49892492e+03
  1180.0000 0.14630135    1.50035614e+03
  1180.5000 0.14636334    1.50342929e+03
  1181.0000 0.14642533    1.50822437e+03
  1181.5000 0.14648732    1.51483159e+03
  1182.0000 0.14654932    1.52334943e+03
  1182.5000 0.14661131    1.53388061e+03
  1183.0000 0.14667330    1.54652495e+03
  1183.5000 0.14673529    1.56136762e+03
  1184.0000 0.14679729    1.57846117e+03
  1184.5000 0.14685928    1.59780000e+03
  1185.0000 0.14692127    1.61928721e+03
  1185.5000 0.14698326    1.64269691e+03
  1186.0000 0.14704525    1.66764082e+03
  1186.5000 0.14710725    1.69355543e+03
  1187.0000 0.14716924    1.71973164e+03
  1187.5000 0.14723123    1.74540585e+03
  1188.0000 0.14729322    1.76991120e+03
  1188.5000 0.14735521    1.79285386e+03
  1189.0000 0.14741721    1.81424980e+03
  1189.5000 0.14747920    1.83456106e+03
  1190.0000 0.14754119    1.85461504e+03
  1190.5000 0.14760318    1.87544626e+03
  1191.0000 0.14766517    1.89812858e+03
  1191.5000 0.14772717    1.92365227e+03
  1192.0000 0.14778916    1.95286580e+03
  1192.5000 0.14785115    1.98647272e+03
  1193.0000 0.14791314    2.02506174e+03
  1193.5000 0.14797514    2.06915001e+03
  1194.0000 0.14803713    2.11922657e+03
  1194.5000 0.14809912    2.17578979e+03
  1195.0000 0.14816111    2.23937724e+03
  1195.5000 0.14822310    2.31058811e+03
  1196.0000 0.14828510    2.39009904e+03
  1196.5000 0.14834709    2.47867349e+03
  1197.0000 0.14840908    2.57716379e+03
  1197.5000 0.14847107    2.68650353e+03
  1198.0000 0.14853306    2.80768647e+03
  1198.5000 0.14859506    2.94172675e+03
  1199.0000 0.14865705    3.08959462e+03
  1199.5000 0.14871904    3.25212394e+03
  1200.0000 0.14878103    3.42989467e+03
  1200.5000 0.14884302    3.62310844e+03
  1201.0000 0.14890502    3.83149867e+03
  1201.5000 0.14896701    4.05434359e+03
  1202.0000 0.14902900    4.29066129e+03
  1202.5000 0.14909099    4.53963371e+03
  1203.0000 0.14915299    4.80121564e+03
  1203.5000 0.14921498    5.07676808e+03
  1204.0000 0.14927697    5.36949821e+03
  1204.5000 0.14933896    5.68455473e+03
  1205.0000 0.14940095    6.02877966e+03
  1205.5000 0.14946295    6.41023253e+03
  1206.0000 0.14952494    6.83760375e+03
  1206.5000 0.14958693    7.31955752e+03
  1207.0000 0.14964892    7.86396718e+03
  1207.5000 0.14971091    8.47695548e+03
  1208.0000 0.14977291    9.16162080e+03
  1208.5000 0.14983490    9.91632598e+03
  1209.0000 0.14989689    1.07324943e+04
  1209.5000 0.14995888    1.15920586e+04
  1210.0000 0.15002087    1.24650918e+04
  1210.5000 0.15008287    1.33086766e+04
  1211.0000 0.15014486    1.40685182e+04
  1211.5000 0.15020685    1.46846891e+04
  1212.0000 0.15026884    1.51016569e+04
  1212.5000 0.15033083    1.52804198e+04
  1213.0000 0.15039283    1.52083786e+04
  1213.5000 0.15045482    1.49024796e+04
  1214.0000 0.15051681    1.44039893e+04
  1214.5000 0.15057880    1.37672974e+04
  1215.0000 0.15064080    1.30475129e+04
  1215.5000 0.15070279    1.22910721e+04
  1216.0000 0.15076478    1.15312439e+04
  1216.5000 0.15082677    1.07881830e+04
  1217.0000 0.15088876    1.00719623e+04
  1217.5000 0.15095076    9.38671904e+03
  1218.0000 0.15101275    8.73432401e+03
  1218.5000 0.15107474    8.11661481e+03
  1219.0000 0.15113673    7.53604671e+03
  1219.5000 0.15119872    6.99526935e+03
  1220.0000 0.15126072    6.49636031e+03
  1220.5000 0.15132271    6.04025433e+03
  1221.0000 0.15138470    5.62656124e+03
  1221.5000 0.15144669    5.25370987e+03
  1222.0000 0.15150868    4.91926151e+03
  1222.5000 0.15157068    4.62025549e+03
  1223.0000 0.15163267    4.35350688e+03
  1223.5000 0.15169466    4.11582671e+03
  1224.0000 0.15175665    3.90416636e+03
  1224.5000 0.15181865    3.71570036e+03
  1225.0000 0.15188064    3.54786493e+03
  1225.5000 0.15194263    3.39836735e+03
  1226.0000 0.15200462    3.26517756e+03
  1226.5000 0.15206661    3.14651000e+03
  1227.0000 0.15212861    3.04080110e+03
  1227.5000 0.15219060    2.94668535e+03
  1228.0000 0.15225259    2.86297212e+03
  1228.5000 0.15231458    2.78862414e+03
  1229.0000 0.15237657    2.72273800e+03
  1229.5000 0.15243857    2.66452695e+03
  1230.0000 0.15250056    2.61330579e+03
  1230.5000 0.15256255    2.56847781e+03
  1231.0000 0.15262454    2.52952357e+03
  1231.5000 0.15268653    2.49599120e+03
  1232.0000 0.15274853    2.46748816e+03
  1232.5000 0.15281052    2.44367423e+03
  1233.0000 0.15287251    2.42425554e+03
  1233.5000 0.15293450    2.40897954e+03
  1234.0000 0.15299650    2.39763072e+03
  1234.5000 0.15305849    2.39002710e+03
  1235.0000 0.15312048    2.38601732e+03
  1235.5000 0.15318247    2.38547818e+03
  1236.0000 0.15324446    2.38831284e+03
  1236.5000 0.15330646    2.39444932e+03
  1237.0000 0.15336845    2.40383949e+03
  1237.5000 0.15343044    2.41645844e+03
  1238.0000 0.15349243    2.43230425e+03
  1238.5000 0.15355442    2.45139811e+03
  1239.0000 0.15361642    2.47378489e+03
  1239.5000 0.15367841    2.49953409e+03
  1240.0000 0.15374040    2.52874122e+03
  1240.5000 0.15380239    2.56152972e+03
  1241.0000 0.15386438    2.59805335e+03
  1241.5000 0.15392638    2.63849919e+03
  1242.0000 0.15398837    2.68309132e+03
  1242.5000 0.15405036    2.73209518e+03
  1243.0000 0.15411235    2.78582277e+03
  1243.5000 0.15417434    2.84463862e+03
  1244.0000 0.15423634    2.90896663e+03
  1244.5000 0.15429833    2.97929773e+03
  1245.0000 0.15436032    3.05619798e+03
  1245.5000 0.15442231    3.14031691e+03
  1246.0000 0.15448431    3.23239500e+03
  1246.5000 0.15454630    3.33326902e+03
  1247.0000 0.15460829    3.44387262e+03
  1247.5000 0.15467028    3.56522831e+03
  1248.0000 0.15473227    3.69842451e+03
  1248.5000 0.15479427    3.84456849e+03
  1249.0000 0.15485626    4.00470211e+03
  1249.5000 0.15491825    4.17966261e+03
  1250.0000 0.15498024    4.36986822e+03
  1250.5000 0.15504223    4.57500928e+03
  1251.0000 0.15510423    4.79363929e+03
  1251.5000 0.15516622    5.02269432e+03
  1252.0000 0.15522821    5.25703439e+03
  1252.5000 0.15529020    5.48919312e+03
  1253.0000 0.15535219    5.70960632e+03
  1253.5000 0.15541419    5.90758211e+03
  1254.0000 0.15547618    6.07307199e+03
  1254.5000 0.15553817    6.19889192e+03
  1255.0000 0.15560016    6.28262616e+03
  1255.5000 0.15566216    6.32738220e+03
  1256.0000 0.15572415    6.34103336e+03
  1256.5000 0.15578614    6.33431595e+03
  1257.0000 0.15584813    6.31861410e+03
  1257.5000 0.15591012    6.30419778e+03
  1258.0000 0.15597212    6.29926259e+03
  1258.5000 0.15603411    6.30971060e+03
  1259.0000 0.15609610    6.33940886e+03
  1259.5000 0.15615809    6.39065566e+03
  1260.0000 0.15622008    6.46466862e+03
  1260.5000 0.15628208    6.56200178e+03
  1261.0000 0.15634407    6.68286328e+03
  1261.5000 0.15640606    6.82734004e+03
  1262.0000 0.15646805    6.99554836e+03
  1262.5000 0.15653004    7.18773141e+03
  1263.0000 0.15659204    7.40432128e+03
  1263.5000 0.15665403    7.64597902e+03
  1264.0000 0.15671602    7.91362226e+03
  1264.5000 0.15677801    8.20844711e+03
  1265.0000 0.15684001    8.53194864e+03
  1265.5000 0.15690200    8.88594306e+03
  1266.0000 0.15696399    9.27259385e+03
  1266.5000 0.15702598    9.69444328e+03
  1267.0000 0.15708797    1.01544510e+04
  1267.5000 0.15714997    1.06560406e+04
  1268.0000 0.15721196    1.12031564e+04
  1268.5000 0.15727395    1.18003308e+04
  1269.0000 0.15733594    1.24527653e+04
  1269.5000 0.15739793    1.31664259e+04
  1270.0000 0.15745993    1.39481567e+04
  1270.5000 0.15752192    1.48058137e+04
  1271.0000 0.15758391    1.57484210e+04
  1271.5000 0.15764590    1.67863551e+04
  1272.0000 0.15770789    1.79315577e+04
  1272.5000 0.15776989    1.91977825e+04
  1273.0000 0.15783188    2.06008770e+04
  1273.5000 0.15789387    2.21590991e+04
  1274.0000 0.15795586    2.38934658e+04
  1274.5000 0.15801785    2.58281229e+04
  1275.0000 0.15807985    2.79907133e+04
  1275.5000 0.15814184    3.04127042e+04
  1276.0000 0.15820383    3.31296009e+04
  1276.5000 0.15826582    3.61809307e+04
  1277.0000 0.15832782    3.96098073e+04
  1277.5000 0.15838981    4.34617863e+04
  1278.0000 0.15845180    4.77825795e+04
  1278.5000 0.15851379    5.26140256e+04
  1279.0000 0.15857578    5.79875310e+04
  1279.5000 0.15863778    6.39140964e+04
  1280.0000 0.15869977    7.03701983e+04
  1280.5000 0.15876176    7.72795326e+04
  1281.0000 0.15882375    8.44923737e+04
  1281.5000 0.15888574    9.17673952e+04
  1282.0000 0.15894774    9.87648476e+04
  1282.5000 0.15900973    1.05062975e+05
  1283.0000 0.15907172    1.10207472e+05
  1283.5000 0.15913371    1.13792694e+05
  1284.0000 0.15919570    1.15554583e+05
  1284.5000 0.15925770    1.15439922e+05
  1285.0000 0.15931969    1.13619303e+05
  1285.5000 0.15938168    1.10435830e+05
  1286.0000 0.15944367    1.06312060e+05
  1286.5000 0.15950567    1.01652688e+05
  1287.0000 0.15956766    9.67736241e+04
  1287.5000 0.15962965    9.18701921e+04
  1288.0000 0.15969164    8.70220223e+04
  1288.5000 0.15975363    8.22244660e+04
  1289.0000 0.15981563    7.74333983e+04
  1289.5000 0.15987762    7.26090692e+04
  1290.0000 0.15993961    6.77459576e+04
  1290.5000 0.16000160    6.28815017e+04
  1291.0000 0.16006359    5.80857856e+04
  1291.5000 0.16012559    5.34414956e+04
  1292.0000 0.16018758    4.90245898e+04
  1292.5000 0.16024957    4.48920201e+04
  1293.0000 0.16031156    4.10775873e+04
  1293.5000 0.16037355    3.75937204e+04
  1294.0000 0.16043555    3.44361858e+04
  1294.5000 0.16049754    3.15894057e+04
  1295.0000 0.16055953    2.90311085e+04
  1295.5000 0.16062152    2.67358519e+04
  1296.0000 0.16068352    2.46774268e+04
  1296.5000 0.16074551    2.28303562e+04
  1297.0000 0.16080750    2.11707402e+04
  1297.5000 0.16086949    1.96766799e+04
  1298.0000 0.16093148    1.83284542e+04
  1298.5000 0.16099348    1.71085654e+04
  1299.0000 0.16105547    1.60017055e+04
  1299.5000 0.16111746    1.49946546e+04
  1300.0000 0.16117945    1.40761009e+04
  1300.5000 0.16124144    1.32363911e+04
  1301.0000 0.16130344    1.24672476e+04
  1301.5000 0.16136543    1.17614985e+04
  1302.0000 0.16142742    1.11128541e+04
  1302.5000 0.16148941    1.05157424e+04
  1303.0000 0.16155140    9.96519512e+03
  1303.5000 0.16161340    9.45676759e+03
  1304.0000 0.16167539    8.98648021e+03
  1304.5000 0.16173738    8.55077044e+03
  1305.0000 0.16179937    8.14645074e+03
  1305.5000 0.16186136    7.77067012e+03
  1306.0000 0.16192336    7.42087862e+03
  1306.5000 0.16198535    7.09479457e+03
  1307.0000 0.16204734    6.79037485e+03
  1307.5000 0.16210933    6.50578797e+03
  1308.0000 0.16217133    6.23939009e+03
  1308.5000 0.16223332    5.98970372e+03
  1309.0000 0.16229531    5.75539889e+03
  1309.5000 0.16235730    5.53527659e+03
  1310.0000 0.16241929    5.32825423e+03
  1310.5000 0.16248129    5.13335287e+03
  1311.0000 0.16254328    4.94968605e+03
  1311.5000 0.16260527    4.77644996e+03
  1312.0000 0.16266726    4.61291482e+03
  1312.5000 0.16272925    4.45841735e+03
  1313.0000 0.16279125    4.31235410e+03
  1313.5000 0.16285324    4.17417566e+03
  1314.0000 0.16291523    4.04338152e+03
  1314.5000 0.16297722    3.91951554e+03
  1315.0000 0.16303921    3.80216206e+03
  1315.5000 0.16310121    3.69094240e+03
  1316.0000 0.16316320    3.58551185e+03
  1316.5000 0.16322519    3.48555703e+03
  1317.0000 0.16328718    3.39079364e+03
  1317.5000 0.16334918    3.30096449e+03
  1318.0000 0.16341117    3.21583790e+03
  1318.5000 0.16347316    3.13520629e+03
  1319.0000 0.16353515    3.05888515e+03
  1319.5000 0.16359714    2.98671218e+03
  1320.0000 0.16365914    2.91854680e+03
  1320.5000 0.16372113    2.85426984e+03
  1321.0000 0.16378312    2.79378356e+03
  1321.5000 0.16384511    2.73701193e+03
  1322.0000 0.16390710    2.68390128e+03
  1322.5000 0.16396910    2.63442128e+03
  1323.0000 0.16403109    2.58856626e+03
  1323.5000 0.16409308    2.54635701e+03
  1324.0000 0.16415507    2.50784309e+03
  1324.5000 0.16421706    2.47310559e+03
  1325.0000 0.16427906    2.44226055e+03
  1325.5000 0.16434105    2.41546308e+03
  1326.0000 0.16440304    2.39291209e+03
  1326.5000 0.16446503    2.37485579e+03
  1327.0000 0.16452703    2.36159792e+03
  1327.5000 0.16458902    2.35350440e+03
  1328.0000 0.16465101    2.35101027e+03
  1328.5000 0.16471300    2.35462611e+03
  1329.0000 0.16477499    2.36494287e+03
  1329.5000 0.16483699    2.38263317e+03
  1330.0000 0.16489898    2.40844590e+03
  1330.5000 0.16496097    2.44318926e+03
  1331.0000 0.16502296    2.48769475e+03
  1331.5000 0.16508495    2.54275141e+03
  1332.0000 0.16514695    2.60899589e+03
  1332.5000 0.16520894    2.68674059e+03
  1333.0000 0.16527093    2.77572222e+03
  1333.5000 0.16533292    2.87476167e+03
  1334.0000 0.16539491    2.98135085e+03
  1334.5000 0.16545691    3.09123253e+03
  1335.0000 0.16551890    3.19811652e+03
  1335.5000 0.16558089    3.29375625e+03
  1336.0000 0.16564288    3.36863073e+03
  1336.5000 0.16570487    3.41334492e+03
  1337.0000 0.16576687    3.42053592e+03
  1337.5000 0.16582886    3.38668172e+03
  1338.0000 0.16589085    3.31305261e+03
  1338.5000 0.16595284    3.20535223e+03
  1339.0000 0.16601484    3.07222305e+03
  1339.5000 0.16607683    2.92329170e+03
  1340.0000 0.16613882    2.76747977e+03
  1340.5000 0.16620081    2.61198361e+03
  1341.0000 0.16626280    2.46194105e+03
  1341.5000 0.16632480    2.32057789e+03
  1342.0000 0.16638679    2.18958720e+03
  1342.5000 0.16644878    2.06955805e+03
  1343.0000 0.16651077    1.96035398e+03
  1343.5000 0.16657276    1.86140573e+03
  1344.0000 0.16663476    1.77191817e+03
  1344.5000 0.16669675    1.69100681e+03
  1345.0000 0.16675874    1.61778197e+03
  1345.5000 0.16682073    1.55139694e+03
  1346.0000 0.16688272    1.49107255e+03
  1346.5000 0.16694472    1.43610698e+03
  1347.0000 0.16700671    1.38587688e+03
  1347.5000 0.16706870    1.33983356e+03
  1348.0000 0.16713069    1.29749690e+03
  1348.5000 0.16719269    1.25844819e+03
  1349.0000 0.16725468    1.22232292e+03
  1349.5000 0.16731667    1.18880400e+03
  1350.0000 0.16737866    1.15761549e+03
  1350.5000 0.16744065    1.12851703e+03
  1351.0000 0.16750265    1.10129903e+03
  1351.5000 0.16756464    1.07577836e+03
  1352.0000 0.16762663    1.05179476e+03
  1352.5000 0.16768862    1.02920769e+03
  1353.0000 0.16775061    1.00789364e+03
  1353.5000 0.16781261    9.87743891e+02
  1354.0000 0.16787460    9.68662517e+02
  1354.5000 0.16793659    9.50564755e+02
  1355.0000 0.16799858    9.33375582e+02
  1355.5000 0.16806057    9.17028509e+02
  1356.0000 0.16812257    9.01464561e+02
  1356.5000 0.16818456    8.86631403e+02
  1357.0000 0.16824655    8.72482600e+02
  1357.5000 0.16830854    8.58976989e+02
  1358.0000 0.16837054    8.46078146e+02
  1358.5000 0.16843253    8.33753940e+02
  1359.0000 0.16849452    8.21976150e+02
  1359.5000 0.16855651    8.10720147e+02
  1360.0000 0.16861850    7.99964622e+02
  1360.5000 0.16868050    7.89691357e+02
  1361.0000 0.16874249    7.79885033e+02
  1361.5000 0.16880448    7.70533085e+02
  1362.0000 0.16886647    7.61625616e+02
  1362.5000 0.16892846    7.53155388e+02
  1363.0000 0.16899046    7.45117930e+02
  1363.5000 0.16905245    7.37511712e+02
  1364.0000 0.16911444    7.30338323e+02
  1364.5000 0.16917643    7.23602457e+02
  1365.0000 0.16923842    7.17311464e+02
  1365.5000 0.16930042    7.11474229e+02
  1366.0000 0.16936241    7.06099148e+02
  1366.5000 0.16942440    7.01191007e+02
  1367.0000 0.16948639    6.96746468e+02
  1367.5000 0.16954838    6.92747945e+02
  1368.0000 0.16961038    6.89155801e+02
  1368.5000 0.16967237    6.85899576e+02
  1369.0000 0.16973436    6.82870152e+02
  1369.5000 0.16979635    6.79916554e+02
  1370.0000 0.16985835    6.76852406e+02
  1370.5000 0.16992034    6.73476350e+02
  1371.0000 0.16998233    6.69606305e+02
  1371.5000 0.17004432    6.65119561e+02
  1372.0000 0.17010631    6.59983988e+02
  1372.5000 0.17016831    6.54266299e+02
  1373.0000 0.17023030    6.48113372e+02
  1373.5000 0.17029229    6.41715526e+02
  1374.0000 0.17035428    6.35267296e+02
  1374.5000 0.17041627    6.28938265e+02
  1375.0000 0.17047827    6.22858621e+02
  1375.5000 0.17054026    6.17117251e+02
  1376.0000 0.17060225    6.11767405e+02
  1376.5000 0.17066424    6.06835281e+02
  1377.0000 0.17072623    6.02328552e+02
  1377.5000 0.17078823    5.98243408e+02
  1378.0000 0.17085022    5.94569803e+02
  1378.5000 0.17091221    5.91295055e+02
  1379.0000 0.17097420    5.88406169e+02
  1379.5000 0.17103620    5.85891257e+02
  1380.0000 0.17109819    5.83740335e+02
  1380.5000 0.17116018    5.81945741e+02
  1381.0000 0.17122217    5.80502312e+02
  1381.5000 0.17128416    5.79407431e+02
  1382.0000 0.17134616    5.78661014e+02
  1382.5000 0.17140815    5.78265471e+02
  1383.0000 0.17147014    5.78225664e+02
  1383.5000 0.17153213    5.78548895e+02
  1384.0000 0.17159412    5.79244910e+02
  1384.5000 0.17165612    5.80325941e+02
  1385.0000 0.17171811    5.81806779e+02
  1385.5000 0.17178010    5.83704897e+02
  1386.0000 0.17184209    5.86040600e+02
  1386.5000 0.17190408    5.88837232e+02
  1387.0000 0.17196608    5.92121425e+02
  1387.5000 0.17202807    5.95923408e+02
  1388.0000 0.17209006    6.00277370e+02
  1388.5000 0.17215205    6.05221896e+02
  1389.0000 0.17221405    6.10800474e+02
  1389.5000 0.17227604    6.17062100e+02
  1390.0000 0.17233803    6.24061974e+02
  1390.5000 0.17240002    6.31862320e+02
  1391.0000 0.17246201    6.40533348e+02
  1391.5000 0.17252401    6.50154367e+02
  1392.0000 0.17258600    6.60815096e+02
  1392.5000 0.17264799    6.72617191e+02
  1393.0000 0.17270998    6.85676034e+02
  1393.5000 0.17277197    7.00122825e+02
  1394.0000 0.17283397    7.16107028e+02
  1394.5000 0.17289596    7.33799231e+02
  1395.0000 0.17295795    7.53394482e+02
  1395.5000 0.17301994    7.75116167e+02
  1396.0000 0.17308193    7.99220505e+02
  1396.5000 0.17314393    8.26001704e+02
  1397.0000 0.17320592    8.55797830e+02
  1397.5000 0.17326791    8.88997364e+02
  1398.0000 0.17332990    9.26046352e+02
  1398.5000 0.17339189    9.67455884e+02
  1399.0000 0.17345389    1.01380939e+03
  1399.5000 0.17351588    1.06576881e+03
  1400.0000 0.17357787    1.12407800e+03
  1400.5000 0.17363986    1.18956072e+03
  1401.0000 0.17370186    1.26310902e+03
  1401.5000 0.17376385    1.34565547e+03
  1402.0000 0.17382584    1.43811990e+03
  1402.5000 0.17388783    1.54131743e+03
  1403.0000 0.17394982    1.65581131e+03
  1403.5000 0.17401182    1.78169274e+03
  1404.0000 0.17407381    1.91827483e+03
  1404.5000 0.17413580    2.06370700e+03
  1405.0000 0.17419779    2.21455698e+03
  1405.5000 0.17425978    2.36547679e+03
  1406.0000 0.17432178    2.50915179e+03
  1406.5000 0.17438377    2.63677849e+03
  1407.0000 0.17444576    2.73924033e+03
  1407.5000 0.17450775    2.80888315e+03
  1408.0000 0.17456974    2.84140196e+03
  1408.5000 0.17463174    2.83709650e+03
  1409.0000 0.17469373    2.80091495e+03
  1409.5000 0.17475572    2.74126667e+03
  1410.0000 0.17481771    2.66815930e+03
  1410.5000 0.17487971    2.59140426e+03
  1411.0000 0.17494170    2.51939614e+03
  1411.5000 0.17500369    2.45857940e+03
  1412.0000 0.17506568    2.41343529e+03
  1412.5000 0.17512767    2.38673306e+03
  1413.0000 0.17518967    2.37982936e+03
  1413.5000 0.17525166    2.39288286e+03
  1414.0000 0.17531365    2.42492741e+03
  1414.5000 0.17537564    2.47380870e+03
  1415.0000 0.17543763    2.53604553e+03
  1415.5000 0.17549963    2.60673778e+03
  1416.0000 0.17556162    2.67969705e+03
  1416.5000 0.17562361    2.74798130e+03
  1417.0000 0.17568560    2.80490653e+03
  1417.5000 0.17574759    2.84536541e+03
  1418.0000 0.17580959    2.86700562e+03
  1418.5000 0.17587158    2.87072500e+03
  1419.0000 0.17593357    2.86017890e+03
  1419.5000 0.17599556    2.84044897e+03
  1420.0000 0.17605756    2.81637590e+03
  1420.5000 0.17611955    2.79110546e+03
  1421.0000 0.17618154    2.76521006e+03
  1421.5000 0.17624353    2.73653387e+03
  1422.0000 0.17630552    2.70077197e+03
  1422.5000 0.17636752    2.65268289e+03
  1423.0000 0.17642951    2.58766205e+03
  1423.5000 0.17649150    2.50320303e+03
  1424.0000 0.17655349    2.39971772e+03
  1424.5000 0.17661548    2.28042122e+03
  1425.0000 0.17667748    2.15041682e+03
  1425.5000 0.17673947    2.01544801e+03
  1426.0000 0.17680146    1.88081042e+03
  1426.5000 0.17686345    1.75069609e+03
  1427.0000 0.17692544    1.62798426e+03
  1427.5000 0.17698744    1.51434312e+03
  1428.0000 0.17704943    1.41048078e+03
  1428.5000 0.17711142    1.31642603e+03
  1429.0000 0.17717341    1.23177418e+03
  1429.5000 0.17723540    1.15587571e+03
  1430.0000 0.17729740    1.08796807e+03
  1430.5000 0.17735939    1.02726128e+03
  1431.0000 0.17742138    9.72989388e+02
  1431.5000 0.17748337    9.24438544e+02
  1432.0000 0.17754537    8.80960037e+02
  1432.5000 0.17760736    8.41973969e+02
  1433.0000 0.17766935    8.06967576e+02
  1433.5000 0.17773134    7.75490691e+02
  1434.0000 0.17779333    7.47149904e+02
  1434.5000 0.17785533    7.21602364e+02
  1435.0000 0.17791732    6.98549737e+02
  1435.5000 0.17797931    6.77732600e+02
  1436.0000 0.17804130    6.58925387e+02
  1436.5000 0.17810329    6.41931918e+02
  1437.0000 0.17816529    6.26581502e+02
  1437.5000 0.17822728    6.12725558e+02
  1438.0000 0.17828927    6.00234712e+02
  1438.5000 0.17835126    5.88996307e+02
  1439.0000 0.17841325    5.78912276e+02
  1439.5000 0.17847525    5.69897330e+02
  1440.0000 0.17853724    5.61877415e+02
  1440.5000 0.17859923    5.54788401e+02
  1441.0000 0.17866122    5.48574968e+02
  1441.5000 0.17872322    5.43189669e+02
  1442.0000 0.17878521    5.38592137e+02
  1442.5000 0.17884720    5.34748415e+02
  1443.0000 0.17890919    5.31630411e+02
  1443.5000 0.17897118    5.29215435e+02
  1444.0000 0.17903318    5.27485835e+02
  1444.5000 0.17909517    5.26428703e+02
  1445.0000 0.17915716    5.26035654e+02
  1445.5000 0.17921915    5.26302673e+02
  1446.0000 0.17928114    5.27230016e+02
  1446.5000 0.17934314    5.28822173e+02
  1447.0000 0.17940513    5.31087892e+02
  1447.5000 0.17946712    5.34040251e+02
  1448.0000 0.17952911    5.37696792e+02
  1448.5000 0.17959110    5.42079719e+02
  1449.0000 0.17965310    5.47216153e+02
  1449.5000 0.17971509    5.53138458e+02
  1450.0000 0.17977708    5.59884644e+02
  1450.5000 0.17983907    5.67498851e+02
  1451.0000 0.17990107    5.76031929e+02
  1451.5000 0.17996306    5.85542118e+02
  1452.0000 0.18002505    5.96095860e+02
  1452.5000 0.18008704    6.07768736e+02
  1453.0000 0.18014903    6.20646576e+02
  1453.5000 0.18021103    6.34826745e+02
  1454.0000 0.18027302    6.50419655e+02
  1454.5000 0.18033501    6.67550523e+02
  1455.0000 0.18039700    6.86361430e+02
  1455.5000 0.18045899    7.07013729e+02
  1456.0000 0.18052099    7.29690861e+02
  1456.5000 0.18058298    7.54601649e+02
  1457.0000 0.18064497    7.81984169e+02
  1457.5000 0.18070696    8.12110273e+02
  1458.0000 0.18076895    8.45290900e+02
  1458.5000 0.18083095    8.81882283e+02
  1459.0000 0.18089294    9.22293222e+02
  1459.5000 0.18095493    9.66993542e+02
  1460.0000 0.18101692    1.01652393e+03
  1460.5000 0.18107891    1.07150725e+03
  1461.0000 0.18114091    1.13266147e+03
  1461.5000 0.18120290    1.20081418e+03
  1462.0000 0.18126489    1.27691852e+03
  1462.5000 0.18132688    1.36207004e+03
  1463.0000 0.18138888    1.45752335e+03
  1463.5000 0.18145087    1.56470684e+03
  1464.0000 0.18151286    1.68523188e+03
  1464.5000 0.18157485    1.82089111e+03
  1465.0000 0.18163684    1.97363687e+03
  1465.5000 0.18169884    2.14552605e+03
  1466.0000 0.18176083    2.33861101e+03
  1466.5000 0.18182282    2.55474783e+03
  1467.0000 0.18188481    2.79528445e+03
  1467.5000 0.18194680    3.06058577e+03
  1468.0000 0.18200880    3.34935919e+03
  1468.5000 0.18207079    3.65777708e+03
  1469.0000 0.18213278    3.97847344e+03
  1469.5000 0.18219477    4.29963790e+03
  1470.0000 0.18225676    4.60462579e+03
  1470.5000 0.18231876    4.87265967e+03
  1471.0000 0.18238075    5.08112389e+03
  1471.5000 0.18244274    5.20945319e+03
  1472.0000 0.18250473    5.24372386e+03
  1472.5000 0.18256673    5.18027111e+03
  1473.0000 0.18262872    5.02671001e+03
  1473.5000 0.18269071    4.79986389e+03
  1474.0000 0.18275270    4.52159084e+03
  1474.5000 0.18281469    4.21427983e+03
  1475.0000 0.18287669    3.89747567e+03
  1475.5000 0.18293868    3.58618485e+03
  1476.0000 0.18300067    3.29062928e+03
  1476.5000 0.18306266    3.01687934e+03
  1477.0000 0.18312465    2.76783152e+03
  1477.5000 0.18318665    2.54418288e+03
  1478.0000 0.18324864    2.34523789e+03
  1478.5000 0.18331063    2.16950501e+03
  1479.0000 0.18337262    2.01510140e+03
  1479.5000 0.18343461    1.88000531e+03
  1480.0000 0.18349661    1.76219656e+03
  1480.5000 0.18355860    1.65971861e+03
  1481.0000 0.18362059    1.57068849e+03
  1481.5000 0.18368258    1.49327684e+03
  1482.0000 0.18374458    1.42567950e+03
  1482.5000 0.18380657    1.36610496e+03
  1483.0000 0.18386856    1.31280187e+03
  1483.5000 0.18393055    1.26414156e+03
  1484.0000 0.18399254    1.21874652e+03
  1484.5000 0.18405454    1.17562383e+03
  1485.0000 0.18411653    1.13424397e+03
  1485.5000 0.18417852    1.09452203e+03
  1486.0000 0.18424051    1.05670467e+03
  1486.5000 0.18430250    1.02121044e+03
  1487.0000 0.18436450    9.88482476e+02
  1487.5000 0.18442649    9.58891293e+02
  1488.0000 0.18448848    9.32694324e+02
  1488.5000 0.18455047    9.10037978e+02
  1489.0000 0.18461246    8.90982435e+02
  1489.5000 0.18467446    8.75533261e+02
  1490.0000 0.18473645    8.63670574e+02
  1490.5000 0.18479844    8.55371778e+02
  1491.0000 0.18486043    8.50626942e+02
  1491.5000 0.18492242    8.49447103e+02
  1492.0000 0.18498442    8.51865740e+02
  1492.5000 0.18504641    8.57933033e+02
  1493.0000 0.18510840    8.67701544e+02
  1493.5000 0.18517039    8.81200969e+02
  1494.0000 0.18523239    8.98398954e+02
  1494.5000 0.18529438    9.19145312e+02
  1495.0000 0.18535637    9.43099645e+02
  1495.5000 0.18541836    9.69648845e+02
  1496.0000 0.18548035    9.97832690e+02
  1496.5000 0.18554235    1.02631110e+03
  1497.0000 0.18560434    1.05341809e+03
  1497.5000 0.18566633    1.07733962e+03
  1498.0000 0.18572832    1.09641073e+03
  1498.5000 0.18579031    1.10945678e+03
  1499.0000 0.18585231    1.11604647e+03
  1499.5000 0.18591430    1.11653771e+03
  1500.0000 0.18597629    1.11189401e+03
  1500.5000 0.18603828    1.10336813e+03
  1501.0000 0.18610027    1.09220395e+03
  1501.5000 0.18616227    1.07946876e+03
  1502.0000 0.18622426    1.06603613e+03
  1502.5000 0.18628625    1.05265991e+03
  1503.0000 0.18634824    1.04005461e+03
  1503.5000 0.18641024    1.02892616e+03
  1504.0000 0.18647223    1.01994834e+03
  1504.5000 0.18653422    1.01371543e+03
  1505.0000 0.18659621    1.01070487e+03
  1505.5000 0.18665820    1.01126683e+03
  1506.0000 0.18672020    1.01563889e+03
  1506.5000 0.18678219    1.02397555e+03
  1507.0000 0.18684418    1.03638155e+03
  1507.5000 0.18690617    1.05294236e+03
  1508.0000 0.18696816    1.07374887e+03
  1508.5000 0.18703016    1.09891617e+03
  1509.0000 0.18709215    1.12859747e+03
  1509.5000 0.18715414    1.16299469e+03
  1510.0000 0.18721613    1.20236715e+03
  1510.5000 0.18727812    1.24703937e+03
  1511.0000 0.18734012    1.29740906e+03
  1511.5000 0.18740211    1.35395578e+03
  1512.0000 0.18746410    1.41725098e+03
  1512.5000 0.18752609    1.48796968e+03
  1513.0000 0.18758809    1.56690434e+03
  1513.5000 0.18765008    1.65498104e+03
  1514.0000 0.18771207    1.75327834e+03
  1514.5000 0.18777406    1.86304878e+03
  1515.0000 0.18783605    1.98574311e+03
  1515.5000 0.18789805    2.12303647e+03
  1516.0000 0.18796004    2.27685558e+03
  1516.5000 0.18802203    2.44940465e+03
  1517.0000 0.18808402    2.64318597e+03
  1517.5000 0.18814601    2.86100869e+03
  1518.0000 0.18820801    3.10597535e+03
  1518.5000 0.18827000    3.38142994e+03
  1519.0000 0.18833199    3.69084448e+03
  1519.5000 0.18839398    4.03761228e+03
  1520.0000 0.18845597    4.42470907e+03
  1520.5000 0.18851797    4.85418165e+03
  1521.0000 0.18857996    5.32643806e+03
  1521.5000 0.18864195    5.83935470e+03
  1522.0000 0.18870394    6.38729464e+03
  1522.5000 0.18876593    6.96023607e+03
  1523.0000 0.18882793    7.54328985e+03
  1523.5000 0.18888992    8.11684946e+03
  1524.0000 0.18895191    8.65740988e+03
  1524.5000 0.18901390    9.13882198e+03
  1525.0000 0.18907590    9.53371329e+03
  1525.5000 0.18913789    9.81519809e+03
  1526.0000 0.18919988    9.95948215e+03
  1526.5000 0.18926187    9.94977721e+03
  1527.0000 0.18932386    9.78077618e+03
  1527.5000 0.18938586    9.46167577e+03
  1528.0000 0.18944785    9.01575970e+03
  1528.5000 0.18950984    8.47620451e+03
  1529.0000 0.18957183    7.87976491e+03
  1529.5000 0.18963382    7.26078323e+03
  1530.0000 0.18969582    6.64724685e+03
  1530.5000 0.18975781    6.05929106e+03
  1531.0000 0.18981980    5.50957538e+03
  1531.5000 0.18988179    5.00465811e+03
  1532.0000 0.18994378    4.54664712e+03
  1532.5000 0.19000578    4.13470324e+03
  1533.0000 0.19006777    3.76622496e+03
  1533.5000 0.19012976    3.43769675e+03
  1534.0000 0.19019175    3.14525277e+03
  1534.5000 0.19025375    2.88502639e+03
  1535.0000 0.19031574    2.65335022e+03
  1535.5000 0.19037773    2.44685759e+03
  1536.0000 0.19043972    2.26252247e+03
  1536.5000 0.19050171    2.09766263e+03
  1537.0000 0.19056371    1.94992252e+03
  1537.5000 0.19062570    1.81724613e+03
  1538.0000 0.19068769    1.69784596e+03
  1538.5000 0.19074968    1.59017173e+03
  1539.0000 0.19081167    1.49288078e+03
  1539.5000 0.19087367    1.40481095e+03
  1540.0000 0.19093566    1.32495631e+03
  1540.5000 0.19099765    1.25244561e+03
  1541.0000 0.19105964    1.18652298e+03
  1541.5000 0.19112163    1.12653057e+03
  1542.0000 0.19118363    1.07189221e+03
  1542.5000 0.19124562    1.02209756e+03
  1543.0000 0.19130761    9.76685861e+02
  1543.5000 0.19136960    9.35228720e+02
  1544.0000 0.19143160    8.97311896e+02
  1544.5000 0.19149359    8.62517253e+02
  1545.0000 0.19155558    8.30407981e+02
  1545.5000 0.19161757    8.00522563e+02
  1546.0000 0.19167956    7.72384262e+02
  1546.5000 0.19174156    7.45530736e+02
  1547.0000 0.19180355    7.19560850e+02
  1547.5000 0.19186554    6.94184839e+02
  1548.0000 0.19192753    6.69256919e+02
  1548.5000 0.19198952    6.44774118e+02
  1549.0000 0.19205152    6.20840935e+02
  1549.5000 0.19211351    5.97615509e+02
  1550.0000 0.19217550    5.75258173e+02
  1550.5000 0.19223749    5.53896574e+02
  1551.0000 0.19229948    5.33610569e+02
  1551.5000 0.19236148    5.14432362e+02
  1552.0000 0.19242347    4.96354998e+02
  1552.5000 0.19248546    4.79343481e+02
  1553.0000 0.19254745    4.63345178e+02
  1553.5000 0.19260944    4.48298061e+02
  1554.0000 0.19267144    4.34136589e+02
  1554.5000 0.19273343    4.20795569e+02
  1555.0000 0.19279542    4.08212471e+02
  1555.5000 0.19285741    3.96328682e+02
  1556.0000 0.19291941    3.85090054e+02
  1556.5000 0.19298140    3.74447017e+02
  1557.0000 0.19304339    3.64354436e+02
  1557.5000 0.19310538    3.54771333e+02
  1558.0000 0.19316737    3.45660552e+02
  1558.5000 0.19322937    3.36988403e+02
  1559.0000 0.19329136    3.28724310e+02
  1559.5000 0.19335335    3.20840492e+02
  1560.0000 0.19341534    3.13311660e+02
  1560.5000 0.19347733    3.06114755e+02
  1561.0000 0.19353933    2.99228706e+02
  1561.5000 0.19360132    2.92634220e+02
  1562.0000 0.19366331    2.86313596e+02
  1562.5000 0.19372530    2.80250561e+02
  1563.0000 0.19378729    2.74430124e+02
  1563.5000 0.19384929    2.68838452e+02
  1564.0000 0.19391128    2.63462754e+02
  1564.5000 0.19397327    2.58291183e+02
  1565.0000 0.19403526    2.53312748e+02
  1565.5000 0.19409726    2.48517237e+02
  1566.0000 0.19415925    2.43895146e+02
  1566.5000 0.19422124    2.39437618e+02
  1567.0000 0.19428323    2.35136387e+02
  1567.5000 0.19434522    2.30983729e+02
  1568.0000 0.19440722    2.26972417e+02
  1568.5000 0.19446921    2.23095682e+02
  1569.0000 0.19453120    2.19347177e+02
  1569.5000 0.19459319    2.15720941e+02
  1570.0000 0.19465518    2.12211375e+02
  1570.5000 0.19471718    2.08813209e+02
  1571.0000 0.19477917    2.05521485e+02
  1571.5000 0.19484116    2.02331527e+02
  1572.0000 0.19490315    1.99238925e+02
  1572.5000 0.19496514    1.96239518e+02
  1573.0000 0.19502714    1.93329371e+02
  1573.5000 0.19508913    1.90504768e+02
  1574.0000 0.19515112    1.87762189e+02
  1574.5000 0.19521311    1.85098303e+02
  1575.0000 0.19527511    1.82509953e+02
  1575.5000 0.19533710    1.79994146e+02
  1576.0000 0.19539909    1.77548040e+02
  1576.5000 0.19546108    1.75168941e+02
  1577.0000 0.19552307    1.72854286e+02
  1577.5000 0.19558507    1.70601641e+02
  1578.0000 0.19564706    1.68408691e+02
  1578.5000 0.19570905    1.66273231e+02
  1579.0000 0.19577104    1.64193164e+02
  1579.5000 0.19583303    1.62166491e+02
  1580.0000 0.19589503    1.60191308e+02
  1580.5000 0.19595702    1.58265800e+02
  1581.0000 0.19601901    1.56388232e+02
  1581.5000 0.19608100    1.54556953e+02
  1582.0000 0.19614299    1.52770383e+02
  1582.5000 0.19620499    1.51027014e+02
  1583.0000 0.19626698    1.49325405e+02
  1583.5000 0.19632897    1.47664179e+02
  1584.0000 0.19639096    1.46042018e+02
  1584.5000 0.19645296    1.44457661e+02
  1585.0000 0.19651495    1.42909902e+02
  1585.5000 0.19657694    1.41397586e+02
  1586.0000 0.19663893    1.39919606e+02
  1586.5000 0.19670092    1.38474904e+02
  1587.0000 0.19676292    1.37062462e+02
  1587.5000 0.19682491    1.35681309e+02
  1588.0000 0.19688690    1.34330510e+02
  1588.5000 0.19694889    1.33009169e+02
  1589.0000 0.19701088    1.31716428e+02
  1589.5000 0.19707288    1.30451463e+02
  1590.0000 0.19713487    1.29213483e+02
  1590.5000 0.19719686    1.28001727e+02
  1591.0000 0.19725885    1.26815466e+02
  1591.5000 0.19732084    1.25654001e+02
  1592.0000 0.19738284    1.24516659e+02
  1592.5000 0.19744483    1.23402792e+02
  1593.0000 0.19750682    1.22311781e+02
  1593.5000 0.19756881    1.21243028e+02
  1594.0000 0.19763080    1.20195961e+02
  1594.5000 0.19769280    1.19170028e+02
  1595.0000 0.19775479    1.18164700e+02
  1595.5000 0.19781678    1.17179468e+02
  1596.0000 0.19787877    1.16213844e+02
  1596.5000 0.19794077    1.15267357e+02
  1597.0000 0.19800276    1.14339556e+02
  1597.5000 0.19806475    1.13430007e+02
  1598.0000 0.19812674    1.12538293e+02
  1598.5000 0.19818873    1.11664016e+02
  1599.0000 0.19825073    1.10806790e+02
  1599.5000 0.19831272    1.09966247e+02
  1600.0000 0.19837471    1.09142033e+02
  1600.5000 0.19843670    1.08333809e+02
  1601.0000 0.19849869    1.07541250e+02
  1601.5000 0.19856069    1.06764044e+02
  1602.0000 0.19862268    1.06001894e+02
  1602.5000 0.19868467    1.05254513e+02
  1603.0000 0.19874666    1.04521630e+02
  1603.5000 0.19880865    1.03802984e+02
  1604.0000 0.19887065    1.03098327e+02
  1604.5000 0.19893264    1.02407422e+02
  1605.0000 0.19899463    1.01730045e+02
  1605.5000 0.19905662    1.01065982e+02
  1606.0000 0.19911862    1.00415030e+02
  1606.5000 0.19918061    9.97769995e+01
  1607.0000 0.19924260    9.91517092e+01
  1607.5000 0.19930459    9.85389897e+01
  1608.0000 0.19936658    9.79386823e+01
  1608.5000 0.19942858    9.73506390e+01
  1609.0000 0.19949057    9.67747223e+01
  1609.5000 0.19955256    9.62108055e+01
  1610.0000 0.19961455    9.56587723e+01
  1610.5000 0.19967654    9.51185174e+01
  1611.0000 0.19973854    9.45899459e+01
  1611.5000 0.19980053    9.40729739e+01
  1612.0000 0.19986252    9.35675286e+01
  1612.5000 0.19992451    9.30735482e+01
  1613.0000 0.19998650    9.25909822e+01
  1613.5000 0.20004850    9.21197916e+01
  1614.0000 0.20011049    9.16599493e+01
  1614.5000 0.20017248    9.12114402e+01
  1615.0000 0.20023447    9.07742617e+01
  1615.5000 0.20029647    9.03484238e+01
  1616.0000 0.20035846    8.99339500e+01
  1616.5000 0.20042045    8.95308772e+01
  1617.0000 0.20048244    8.91392568e+01
  1617.5000 0.20054443    8.87591546e+01
  1618.0000 0.20060643    8.83906523e+01
  1618.5000 0.20066842    8.80338475e+01
  1619.0000 0.20073041    8.76888546e+01
  1619.5000 0.20079240    8.73558059e+01
  1620.0000 0.20085439    8.70348526e+01
  1620.5000 0.20091639    8.67261654e+01
  1621.0000 0.20097838    8.64299360e+01
  1621.5000 0.20104037    8.61463782e+01
  1622.0000 0.20110236    8.58757294e+01
  1622.5000 0.20116435    8.56182519e+01
  1623.0000 0.20122635    8.53742347e+01
  1623.5000 0.20128834    8.51439953e+01
  1624.0000 0.20135033    8.49278816e+01
  1624.5000 0.20141232    8.47262743e+01
  1625.0000 0.20147431    8.45395888e+01
  1625.5000 0.20153631    8.43682784e+01
  1626.0000 0.20159830    8.42128370e+01
  1626.5000 0.20166029    8.40738022e+01
  1627.0000 0.20172228    8.39517587e+01
  1627.5000 0.20178428    8.38473427e+01
  1628.0000 0.20184627    8.37612457e+01
  1628.5000 0.20190826    8.36942194e+01
  1629.0000 0.20197025    8.36470812e+01
  1629.5000 0.20203224    8.36207197e+01
  1630.0000 0.20209424    8.36161011e+01
  1630.5000 0.20215623    8.36342769e+01
  1631.0000 0.20221822    8.36763916e+01
  1631.5000 0.20228021    8.37436915e+01
  1632.0000 0.20234220    8.38375347e+01
  1632.5000 0.20240420    8.39594026e+01
  1633.0000 0.20246619    8.41109118e+01
  1633.5000 0.20252818    8.42938285e+01
  1634.0000 0.20259017    8.45100839e+01
  1634.5000 0.20265216    8.47617921e+01
  1635.0000 0.20271416    8.50512696e+01
  1635.5000 0.20277615    8.53810580e+01
  1636.0000 0.20283814    8.57539494e+01
  1636.5000 0.20290013    8.61730149e+01
  1637.0000 0.20296213    8.66416372e+01
  1637.5000 0.20302412    8.71635477e+01
  1638.0000 0.20308611    8.77428690e+01
  1638.5000 0.20314810    8.83841624e+01
  1639.0000 0.20321009    8.90924837e+01
  1639.5000 0.20327209    8.98734459e+01
  1640.0000 0.20333408    9.07332920e+01
  1640.5000 0.20339607    9.16789783e+01
  1641.0000 0.20345806    9.27182704e+01
  1641.5000 0.20352005    9.38598551e+01
  1642.0000 0.20358205    9.51134685e+01
  1642.5000 0.20364404    9.64900457e+01
  1643.0000 0.20370603    9.80018940e+01
  1643.5000 0.20376802    9.96628954e+01
  1644.0000 0.20383001    1.01488742e+02
  1644.5000 0.20389201    1.03497211e+02
  1645.0000 0.20395400    1.05708486e+02
  1645.5000 0.20401599    1.08145534e+02
  1646.0000 0.20407798    1.10834542e+02
  1646.5000 0.20413998    1.13805436e+02
  1647.0000 0.20420197    1.17092476e+02
  1647.5000 0.20426396    1.20734955e+02
  1648.0000 0.20432595    1.24778007e+02
  1648.5000 0.20438794    1.29273539e+02
  1649.0000 0.20444994    1.34281279e+02
  1649.5000 0.20451193    1.39869967e+02
  1650.0000 0.20457392    1.46118635e+02
  1650.5000 0.20463591    1.53117964e+02
  1651.0000 0.20469790    1.60971590e+02
  1651.5000 0.20475990    1.69797228e+02
  1652.0000 0.20482189    1.79727289e+02
  1652.5000 0.20488388    1.90908533e+02
  1653.0000 0.20494587    2.03500009e+02
  1653.5000 0.20500786    2.17668136e+02
  1654.0000 0.20506986    2.33577276e+02
  1654.5000 0.20513185    2.51373551e+02
  1655.0000 0.20519384    2.71159149e+02
  1655.5000 0.20525583    2.92954269e+02
  1656.0000 0.20531782    3.16645027e+02
  1656.5000 0.20537982    3.41919142e+02
  1657.0000 0.20544181    3.68198291e+02
  1657.5000 0.20550380    3.94586744e+02
  1658.0000 0.20556579    4.19866834e+02
  1658.5000 0.20562779    4.42574243e+02
  1659.0000 0.20568978    4.61168461e+02
  1659.5000 0.20575177    4.74273249e+02
  1660.0000 0.20581376    4.80917659e+02
  1660.5000 0.20587575    4.80696132e+02
  1661.0000 0.20593775    4.73803882e+02
  1661.5000 0.20599974    4.60962661e+02
  1662.0000 0.20606173    4.43283530e+02
  1662.5000 0.20612372    4.22105005e+02
  1663.0000 0.20618571    3.98827133e+02
  1663.5000 0.20624771    3.74759432e+02
  1664.0000 0.20630970    3.51005211e+02
  1664.5000 0.20637169    3.28398905e+02
  1665.0000 0.20643368    3.07496226e+02
  1665.5000 0.20649567    2.88601745e+02
  1666.0000 0.20655767    2.71813476e+02
  1666.5000 0.20661966    2.57068276e+02
  1667.0000 0.20668165    2.44180014e+02
  1667.5000 0.20674364    2.32870405e+02
  1668.0000 0.20680564    2.22797887e+02
  1668.5000 0.20686763    2.13591738e+02
  1669.0000 0.20692962    2.04895380e+02
  1669.5000 0.20699161    1.96414838e+02
  1670.0000 0.20705360    1.87959498e+02
  1670.5000 0.20711560    1.79459774e+02
  1671.0000 0.20717759    1.70954276e+02
  1671.5000 0.20723958    1.62553001e+02
  1672.0000 0.20730157    1.54392721e+02
  1672.5000 0.20736356    1.46600156e+02
  1673.0000 0.20742556    1.39270591e+02
  1673.5000 0.20748755    1.32461340e+02
  1674.0000 0.20754954    1.26195102e+02
  1674.5000 0.20761153    1.20467866e+02
  1675.0000 0.20767352    1.15257560e+02
  1675.5000 0.20773552    1.10531492e+02
  1676.0000 0.20779751    1.06251920e+02
  1676.5000 0.20785950    1.02379806e+02
  1677.0000 0.20792149    9.88770939e+01
  1677.5000 0.20798349    9.57078695e+01
  1678.0000 0.20804548    9.28387238e+01
  1678.5000 0.20810747    9.02385408e+01
  1679.0000 0.20816946    8.78778897e+01
  1679.5000 0.20823145    8.57281793e+01
  1680.0000 0.20829345    8.37607840e+01
  1680.5000 0.20835544    8.19464441e+01
  1681.0000 0.20841743    8.02553347e+01
  1681.5000 0.20847942    7.86581641e+01
  1682.0000 0.20854141    7.71283606e+01
  1682.5000 0.20860341    7.56448430e+01
  1683.0000 0.20866540    7.41943207e+01
  1683.5000 0.20872739    7.27720230e+01
  1684.0000 0.20878938    7.13804188e+01
  1684.5000 0.20885137    7.00264733e+01
  1685.0000 0.20891337    6.87185692e+01
  1685.5000 0.20897536    6.74640972e+01
  1686.0000 0.20903735    6.62681432e+01
  1686.5000 0.20909934    6.51331651e+01
  1687.0000 0.20916133    6.40592978e+01
  1687.5000 0.20922333    6.30449251e+01
  1688.0000 0.20928532    6.20872778e+01
  1688.5000 0.20934731    6.11829356e+01
  1689.0000 0.20940930    6.03281998e+01
  1689.5000 0.20947130    5.95193447e+01
  1690.0000 0.20953329    5.87527727e+01
  1690.5000 0.20959528    5.80251016e+01
  1691.0000 0.20965727    5.73332052e+01
  1691.5000 0.20971926    5.66742248e+01
  1692.0000 0.20978126    5.60455636e+01
  1692.5000 0.20984325    5.54448716e+01
  1693.0000 0.20990524    5.48700260e+01
  1693.5000 0.20996723    5.43191101e+01
  1694.0000 0.21002922    5.37903922e+01
  1694.5000 0.21009122    5.32823061e+01
  1695.0000 0.21015321    5.27934331e+01
  1695.5000 0.21021520    5.23224854e+01
  1696.0000 0.21027719    5.18682921e+01
  1696.5000 0.21033918    5.14297858e+01
  1697.0000 0.21040118    5.10059919e+01
  1697.5000 0.21046317    5.05960184e+01
  1698.0000 0.21052516    5.01990471e+01
  1698.5000 0.21058715    4.98143259e+01
  1699.0000 0.21064915    4.94411626e+01
  1699.5000 0.21071114    4.90789182e+01
  1700.0000 0.21077313    4.87270023e+01
  1700.5000 0.21083512    4.83848681e+01
  1701.0000 0.21089711    4.80520087e+01
  1701.5000 0.21095911    4.77279530e+01
  1702.0000 0.21102110    4.74122628e+01
  1702.5000 0.21108309    4.71045297e+01
  1703.0000 0.21114508    4.68043728e+01
  1703.5000 0.21120707    4.65114362e+01
  1704.0000 0.21126907    4.62253869e+01
  1704.5000 0.21133106    4.59459131e+01
  1705.0000 0.21139305    4.56727223e+01
  1705.5000 0.21145504    4.54055400e+01
  1706.0000 0.21151703    4.51441082e+01
  1706.5000 0.21157903    4.48881842e+01
  1707.0000 0.21164102    4.46375395e+01
  1707.5000 0.21170301    4.43919586e+01
  1708.0000 0.21176500    4.41512383e+01
  1708.5000 0.21182700    4.39151866e+01
  1709.0000 0.21188899    4.36836220e+01
  1709.5000 0.21195098    4.34563730e+01
  1710.0000 0.21201297    4.32332771e+01
  1710.5000 0.21207496    4.30141804e+01
  1711.0000 0.21213696    4.27989369e+01
  1711.5000 0.21219895    4.25874082e+01
  1712.0000 0.21226094    4.23794627e+01
  1712.5000 0.21232293    4.21749755e+01
  1713.0000 0.21238492    4.19738279e+01
  1713.5000 0.21244692    4.17759067e+01
  1714.0000 0.21250891    4.15811044e+01
  1714.5000 0.21257090    4.13893184e+01
  1715.0000 0.21263289    4.12004509e+01
  1715.5000 0.21269488    4.10144089e+01
  1716.0000 0.21275688    4.08311032e+01
  1716.5000 0.21281887    4.06504490e+01
  1717.0000 0.21288086    4.04723651e+01
  1717.5000 0.21294285    4.02967738e+01
  1718.0000 0.21300484    4.01236010e+01
  1718.5000 0.21306684    3.99527757e+01
  1719.0000 0.21312883    3.97842298e+01
  1719.5000 0.21319082    3.96178983e+01
  1720.0000 0.21325281    3.94537187e+01
  1720.5000 0.21331481    3.92916311e+01
  1721.0000 0.21337680    3.91315781e+01
  1721.5000 0.21343879    3.89735046e+01
  1722.0000 0.21350078    3.88173578e+01
  1722.5000 0.21356277    3.86630868e+01
  1723.0000 0.21362477    3.85106427e+01
  1723.5000 0.21368676    3.83599786e+01
  1724.0000 0.21374875    3.82110494e+01
  1724.5000 0.21381074    3.80638116e+01
  1725.0000 0.21387273    3.79182233e+01
  1725.5000 0.21393473    3.77742444e+01
  1726.0000 0.21399672    3.76318359e+01
  1726.5000 0.21405871    3.74909605e+01
  1727.0000 0.21412070    3.73515822e+01
  1727.5000 0.21418269    3.72136661e+01
  1728.0000 0.21424469    3.70771788e+01
  1728.5000 0.21430668    3.69420879e+01
  1729.0000 0.21436867    3.68083620e+01
  1729.5000 0.21443066    3.66759711e+01
  1730.0000 0.21449266    3.65448860e+01
  1730.5000 0.21455465    3.64150784e+01
  1731.0000 0.21461664    3.62865212e+01
  1731.5000 0.21467863    3.61591880e+01
  1732.0000 0.21474062    3.60330532e+01
  1732.5000 0.21480262    3.59080922e+01
  1733.0000 0.21486461    3.57842812e+01
  1733.5000 0.21492660    3.56615969e+01
  1734.0000 0.21498859    3.55400171e+01
  1734.5000 0.21505058    3.54195199e+01
  1735.0000 0.21511258    3.53000844e+01
  1735.5000 0.21517457    3.51816902e+01
  1736.0000 0.21523656    3.50643175e+01
  1736.5000 0.21529855    3.49479470e+01
  1737.0000 0.21536054    3.48325602e+01
  1737.5000 0.21542254    3.47181391e+01
  1738.0000 0.21548453    3.46046660e+01
  1738.5000 0.21554652    3.44921239e+01
  1739.0000 0.21560851    3.43804963e+01
  1739.5000 0.21567051    3.42697671e+01
  1740.0000 0.21573250    3.41599207e+01
  1740.5000 0.21579449    3.40509419e+01
  1741.0000 0.21585648    3.39428159e+01
  1741.5000 0.21591847    3.38355283e+01
  1742.0000 0.21598047    3.37290652e+01
  1742.5000 0.21604246    3.36234130e+01
  1743.0000 0.21610445    3.35185584e+01
  1743.5000 0.21616644    3.34144885e+01
  1744.0000 0.21622843    3.33111908e+01
  1744.5000 0.21629043    3.32086530e+01
  1745.0000 0.21635242    3.31068633e+01
  1745.5000 0.21641441    3.30058100e+01
  1746.0000 0.21647640    3.29054818e+01
  1746.5000 0.21653839    3.28058678e+01
  1747.0000 0.21660039    3.27069570e+01
  1747.5000 0.21666238    3.26087391e+01
  1748.0000 0.21672437    3.25112038e+01
  1748.5000 0.21678636    3.24143411e+01
  1749.0000 0.21684835    3.23181413e+01
  1749.5000 0.21691035    3.22225948e+01
  1750.0000 0.21697234    3.21276925e+01
  1750.5000 0.21703433    3.20334251e+01
  1751.0000 0.21709632    3.19397838e+01
  1751.5000 0.21715832    3.18467601e+01
  1752.0000 0.21722031    3.17543453e+01
  1752.5000 0.21728230    3.16625314e+01
  1753.0000 0.21734429    3.15713101e+01
  1753.5000 0.21740628    3.14806736e+01
  1754.0000 0.21746828    3.13906141e+01
  1754.5000 0.21753027    3.13011242e+01
  1755.0000 0.21759226    3.12121963e+01
  1755.5000 0.21765425    3.11238234e+01
  1756.0000 0.21771624    3.10359982e+01
  1756.5000 0.21777824    3.09487140e+01
  1757.0000 0.21784023    3.08619638e+01
  1757.5000 0.21790222    3.07757411e+01
  1758.0000 0.21796421    3.06900393e+01
  1758.5000 0.21802620    3.06048522e+01
  1759.0000 0.21808820    3.05201734e+01
  1759.5000 0.21815019    3.04359969e+01
  1760.0000 0.21821218    3.03523166e+01
  1760.5000 0.21827417    3.02691267e+01
  1761.0000 0.21833617    3.01864215e+01
  1761.5000 0.21839816    3.01041953e+01
  1762.0000 0.21846015    3.00224426e+01
  1762.5000 0.21852214    2.99411579e+01
  1763.0000 0.21858413    2.98603360e+01
  1763.5000 0.21864613    2.97799717e+01
  1764.0000 0.21870812    2.97000597e+01
  1764.5000 0.21877011    2.96205951e+01
  1765.0000 0.21883210    2.95415730e+01
  1765.5000 0.21889409    2.94629886e+01
  1766.0000 0.21895609    2.93848370e+01
  1766.5000 0.21901808    2.93071137e+01
  1767.0000 0.21908007    2.92298140e+01
  1767.5000 0.21914206    2.91529334e+01
  1768.0000 0.21920405    2.90764676e+01
  1768.5000 0.21926605    2.90004122e+01
  1769.0000 0.21932804    2.89247630e+01
  1769.5000 0.21939003    2.88495157e+01
  1770.0000 0.21945202    2.87746663e+01
  1770.5000 0.21951402    2.87002107e+01
  1771.0000 0.21957601    2.86261449e+01
  1771.5000 0.21963800    2.85524650e+01
  1772.0000 0.21969999    2.84791673e+01
  1772.5000 0.21976198    2.84062478e+01
  1773.0000 0.21982398    2.83337030e+01
  1773.5000 0.21988597    2.82615290e+01
  1774.0000 0.21994796    2.81897225e+01
  1774.5000 0.22000995    2.81182798e+01
  1775.0000 0.22007194    2.80471974e+01
  1775.5000 0.22013394    2.79764720e+01
  1776.0000 0.22019593    2.79061001e+01
  1776.5000 0.22025792    2.78360784e+01
  1777.0000 0.22031991    2.77664038e+01
  1777.5000 0.22038190    2.76970729e+01
  1778.0000 0.22044390    2.76280826e+01
  1778.5000 0.22050589    2.75594298e+01
  1779.0000 0.22056788    2.74911115e+01
  1779.5000 0.22062987    2.74231246e+01
  1780.0000 0.22069186    2.73554661e+01
  1780.5000 0.22075386    2.72881331e+01
  1781.0000 0.22081585    2.72211228e+01
  1781.5000 0.22087784    2.71544322e+01
  1782.0000 0.22093983    2.70880587e+01
  1782.5000 0.22100183    2.70219994e+01
  1783.0000 0.22106382    2.69562516e+01
  1783.5000 0.22112581    2.68908126e+01
  1784.0000 0.22118780    2.68256798e+01
  1784.5000 0.22124979    2.67608506e+01
  1785.0000 0.22131179    2.66963224e+01
  1785.5000 0.22137378    2.66320927e+01
  1786.0000 0.22143577    2.65681590e+01
  1786.5000 0.22149776    2.65045188e+01
  1787.0000 0.22155975    2.64411698e+01
  1787.5000 0.22162175    2.63781094e+01
  1788.0000 0.22168374    2.63153354e+01
  1788.5000 0.22174573    2.62528454e+01
  1789.0000 0.22180772    2.61906371e+01
  1789.5000 0.22186971    2.61287082e+01
  1790.0000 0.22193171    2.60670566e+01
  1790.5000 0.22199370    2.60056800e+01
  1791.0000 0.22205569    2.59445762e+01
  1791.5000 0.22211768    2.58837431e+01
  1792.0000 0.22217968    2.58231785e+01
  1792.5000 0.22224167    2.57628804e+01
  1793.0000 0.22230366    2.57028467e+01
  1793.5000 0.22236565    2.56430753e+01
  1794.0000 0.22242764    2.55835642e+01
  1794.5000 0.22248964    2.55243115e+01
  1795.0000 0.22255163    2.54653152e+01
  1795.5000 0.22261362    2.54065733e+01
  1796.0000 0.22267561    2.53480839e+01
  1796.5000 0.22273760    2.52898452e+01
  1797.0000 0.22279960    2.52318551e+01
  1797.5000 0.22286159    2.51741120e+01
  1798.0000 0.22292358    2.51166140e+01
  1798.5000 0.22298557    2.50593593e+01
  1799.0000 0.22304756    2.50023460e+01
  1799.5000 0.22310956    2.49455725e+01
  1800.0000 0.22317155    2.48890369e+01
  1800.5000 0.22323354    2.48327377e+01
  1801.0000 0.22329553    2.47766730e+01
  1801.5000 0.22335753    2.47208412e+01
  1802.0000 0.22341952    2.46652407e+01
  1802.5000 0.22348151    2.46098697e+01
  1803.0000 0.22354350    2.45547267e+01
  1803.5000 0.22360549    2.44998101e+01
  1804.0000 0.22366749    2.44451183e+01
  1804.5000 0.22372948    2.43906497e+01
  1805.0000 0.22379147    2.43364027e+01
  1805.5000 0.22385346    2.42823759e+01
  1806.0000 0.22391545    2.42285677e+01
  1806.5000 0.22397745    2.41749767e+01
  1807.0000 0.22403944    2.41216012e+01
  1807.5000 0.22410143    2.40684400e+01
  1808.0000 0.22416342    2.40154915e+01
  1808.5000 0.22422541    2.39627542e+01
  1809.0000 0.22428741    2.39102268e+01
  1809.5000 0.22434940    2.38579079e+01
  1810.0000 0.22441139    2.38057961e+01
  1810.5000 0.22447338    2.37538900e+01
  1811.0000 0.22453537    2.37021882e+01
  1811.5000 0.22459737    2.36506895e+01
  1812.0000 0.22465936    2.35993924e+01
  1812.5000 0.22472135    2.35482956e+01
  1813.0000 0.22478334    2.34973979e+01
  1813.5000 0.22484534    2.34466980e+01
  1814.0000 0.22490733    2.33961946e+01
  1814.5000 0.22496932    2.33458863e+01
  1815.0000 0.22503131    2.32957721e+01
  1815.5000 0.22509330    2.32458505e+01
  1816.0000 0.22515530    2.31961205e+01
  1816.5000 0.22521729    2.31465808e+01
  1817.0000 0.22527928    2.30972302e+01
  1817.5000 0.22534127    2.30480674e+01
  1818.0000 0.22540326    2.29990914e+01
  1818.5000 0.22546526    2.29503010e+01
  1819.0000 0.22552725    2.29016949e+01
  1819.5000 0.22558924    2.28532721e+01
  1820.0000 0.22565123    2.28050315e+01
  1820.5000 0.22571322    2.27569718e+01
  1821.0000 0.22577522    2.27090921e+01
  1821.5000 0.22583721    2.26613911e+01
  1822.0000 0.22589920    2.26138679e+01
  1822.5000 0.22596119    2.25665213e+01
  1823.0000 0.22602319    2.25193502e+01
  1823.5000 0.22608518    2.24723537e+01
  1824.0000 0.22614717    2.24255306e+01
  1824.5000 0.22620916    2.23788800e+01
  1825.0000 0.22627115    2.23324007e+01
  1825.5000 0.22633315    2.22860918e+01
  1826.0000 0.22639514    2.22399522e+01
  1826.5000 0.22645713    2.21939810e+01
  1827.0000 0.22651912    2.21481772e+01
  1827.5000 0.22658111    2.21025397e+01
  1828.0000 0.22664311    2.20570677e+01
  1828.5000 0.22670510    2.20117601e+01
  1829.0000 0.22676709    2.19666160e+01
  1829.5000 0.22682908    2.19216345e+01
  1830.0000 0.22689107    2.18768145e+01
  1830.5000 0.22695307    2.18321552e+01
  1831.0000 0.22701506    2.17876557e+01
  1831.5000 0.22707705    2.17433150e+01
  1832.0000 0.22713904    2.16991322e+01
  1832.5000 0.22720104    2.16551065e+01
  1833.0000 0.22726303    2.16112369e+01
  1833.5000 0.22732502    2.15675225e+01
  1834.0000 0.22738701    2.15239626e+01
  1834.5000 0.22744900    2.14805561e+01
  1835.0000 0.22751100    2.14373023e+01
  1835.5000 0.22757299    2.13942003e+01
  1836.0000 0.22763498    2.13512493e+01
  1836.5000 0.22769697    2.13084483e+01
  1837.0000 0.22775896    2.12657967e+01
  1837.5000 0.22782096    2.12232935e+01
  1838.0000 0.22788295    2.11809380e+01
  1838.5000 0.22794494    2.11387293e+01
  1839.0000 0.22800693    2.10966666e+01
  1839.5000 0.22806892    2.10547492e+01
  1840.0000 0.22813092    2.10129762e+01
  1840.5000 0.22819291    2.09713469e+01
  1841.0000 0.22825490    2.09298604e+01
  1841.5000 0.22831689    2.08885161e+01
  1842.0000 0.22837888    2.08473131e+01
  1842.5000 0.22844088    2.08062507e+01
  1843.0000 0.22850287    2.07653281e+01
  1843.5000 0.22856486    2.07245447e+01
  1844.0000 0.22862685    2.06838995e+01
  1844.5000 0.22868885    2.06433920e+01
  1845.0000 0.22875084    2.06030214e+01
  1845.5000 0.22881283    2.05627869e+01
  1846.0000 0.22887482    2.05226879e+01
  1846.5000 0.22893681    2.04827236e+01
  1847.0000 0.22899881    2.04428933e+01
  1847.5000 0.22906080    2.04031964e+01
  1848.0000 0.22912279    2.03636321e+01
  1848.5000 0.22918478    2.03241997e+01
  1849.0000 0.22924677    2.02848987e+01
  1849.5000 0.22930877    2.02457281e+01
  1850.0000 0.22937076    2.02066875e+01
  1850.5000 0.22943275    2.01677762e+01
  1851.0000 0.22949474    2.01289934e+01
  1851.5000 0.22955673    2.00903385e+01
  1852.0000 0.22961873    2.00518109e+01
  1852.5000 0.22968072    2.00134099e+01
  1853.0000 0.22974271    1.99751349e+01
  1853.5000 0.22980470    1.99369853e+01
  1854.0000 0.22986670    1.98989603e+01
  1854.5000 0.22992869    1.98610594e+01
  1855.0000 0.22999068    1.98232820e+01
  1855.5000 0.23005267    1.97856274e+01
  1856.0000 0.23011466    1.97480950e+01
  1856.5000 0.23017666    1.97106842e+01
  1857.0000 0.23023865    1.96733944e+01
  1857.5000 0.23030064    1.96362251e+01
  1858.0000 0.23036263    1.95991755e+01
  1858.5000 0.23042462    1.95622451e+01
  1859.0000 0.23048662    1.95254334e+01
  1859.5000 0.23054861    1.94887397e+01
  1860.0000 0.23061060    1.94521635e+01
  1860.5000 0.23067259    1.94157041e+01
  1861.0000 0.23073458    1.93793611e+01
  1861.5000 0.23079658    1.93431338e+01
  1862.0000 0.23085857    1.93070217e+01
  1862.5000 0.23092056    1.92710242e+01
  1863.0000 0.23098255    1.92351408e+01
  1863.5000 0.23104455    1.91993709e+01
  1864.0000 0.23110654    1.91637140e+01
  1864.5000 0.23116853    1.91281695e+01
  1865.0000 0.23123052    1.90927368e+01
  1865.5000 0.23129251    1.90574156e+01
  1866.0000 0.23135451    1.90222052e+01
  1866.5000 0.23141650    1.89871050e+01
  1867.0000 0.23147849    1.89521146e+01
  1867.5000 0.23154048    1.89172335e+01
  1868.0000 0.23160247    1.88824611e+01
  1868.5000 0.23166447    1.88477970e+01
  1869.0000 0.23172646    1.88132405e+01
  1869.5000 0.23178845    1.87787912e+01
  1870.0000 0.23185044    1.87444486e+01
  1870.5000 0.23191243    1.87102123e+01
  1871.0000 0.23197443    1.86760816e+01
  1871.5000 0.23203642    1.86420561e+01
  1872.0000 0.23209841    1.86081354e+01
  1872.5000 0.23216040    1.85743189e+01
  1873.0000 0.23222239    1.85406061e+01
  1873.5000 0.23228439    1.85069966e+01
  1874.0000 0.23234638    1.84734899e+01
  1874.5000 0.23240837    1.84400855e+01
  1875.0000 0.23247036    1.84067830e+01
  1875.5000 0.23253236    1.83735818e+01
  1876.0000 0.23259435    1.83404816e+01
  1876.5000 0.23265634    1.83074818e+01
  1877.0000 0.23271833    1.82745820e+01
  1877.5000 0.23278032    1.82417818e+01
  1878.0000 0.23284232    1.82090806e+01
  1878.5000 0.23290431    1.81764781e+01
  1879.0000 0.23296630    1.81439738e+01
  1879.5000 0.23302829    1.81115673e+01
  1880.0000 0.23309028    1.80792580e+01
  1880.5000 0.23315228    1.80470457e+01
  1881.0000 0.23321427    1.80149298e+01
  1881.5000 0.23327626    1.79829099e+01
  1882.0000 0.23333825    1.79509856e+01
  1882.5000 0.23340024    1.79191564e+01
  1883.0000 0.23346224    1.78874220e+01
  1883.5000 0.23352423    1.78557819e+01
  1884.0000 0.23358622    1.78242356e+01
  1884.5000 0.23364821    1.77927829e+01
  1885.0000 0.23371021    1.77614232e+01
  1885.5000 0.23377220    1.77301562e+01
  1886.0000 0.23383419    1.76989814e+01
  1886.5000 0.23389618    1.76678985e+01
  1887.0000 0.23395817    1.76369070e+01
  1887.5000 0.23402017    1.76060066e+01
  1888.0000 0.23408216    1.75751968e+01
  1888.5000 0.23414415    1.75444772e+01
  1889.0000 0.23420614    1.75138475e+01
  1889.5000 0.23426813    1.74833073e+01
  1890.0000 0.23433013    1.74528561e+01
  1890.5000 0.23439212    1.74224937e+01
  1891.0000 0.23445411    1.73922195e+01
  1891.5000 0.23451610    1.73620333e+01
  1892.0000 0.23457809    1.73319346e+01
  1892.5000 0.23464009    1.73019231e+01
  1893.0000 0.23470208    1.72719984e+01
  1893.5000 0.23476407    1.72421602e+01
  1894.0000 0.23482606    1.72124080e+01
  1894.5000 0.23488806    1.71827415e+01
  1895.0000 0.23495005    1.71531603e+01
  1895.5000 0.23501204    1.71236641e+01
  1896.0000 0.23507403    1.70942526e+01
  1896.5000 0.23513602    1.70649252e+01
  1897.0000 0.23519802    1.70356818e+01
  1897.5000 0.23526001    1.70065219e+01
  1898.0000 0.23532200    1.69774452e+01
  1898.5000 0.23538399    1.69484513e+01
  1899.0000 0.23544598    1.69195399e+01
  1899.5000 0.23550798    1.68907107e+01
  1900.0000 0.23556997    1.68619633e+01
  1900.5000 0.23563196    1.68332973e+01
  1901.0000 0.23569395    1.68047125e+01
  1901.5000 0.23575594    1.67762084e+01
  1902.0000 0.23581794    1.67477848e+01
  1902.5000 0.23587993    1.67194413e+01
  1903.0000 0.23594192    1.66911776e+01
  1903.5000 0.23600391    1.66629934e+01
  1904.0000 0.23606590    1.66348883e+01
  1904.5000 0.23612790    1.66068620e+01
  1905.0000 0.23618989    1.65789142e+01
  1905.5000 0.23625188    1.65510445e+01
  1906.0000 0.23631387    1.65232527e+01
  1906.5000 0.23637587    1.64955384e+01
  1907.0000 0.23643786    1.64679013e+01
  1907.5000 0.23649985    1.64403410e+01
  1908.0000 0.23656184    1.64128574e+01
  1908.5000 0.23662383    1.63854500e+01
  1909.0000 0.23668583    1.63581186e+01
  1909.5000 0.23674782    1.63308629e+01
  1910.0000 0.23680981    1.63036824e+01
  1910.5000 0.23687180    1.62765771e+01
  1911.0000 0.23693379    1.62495464e+01
  1911.5000 0.23699579    1.62225902e+01
  1912.0000 0.23705778    1.61957081e+01
  1912.5000 0.23711977    1.61688999e+01
  1913.0000 0.23718176    1.61421652e+01
  1913.5000 0.23724375    1.61155038e+01
  1914.0000 0.23730575    1.60889153e+01
  1914.5000 0.23736774    1.60623995e+01
  1915.0000 0.23742973    1.60359561e+01
  1915.5000 0.23749172    1.60095848e+01
  1916.0000 0.23755372    1.59832853e+01
  1916.5000 0.23761571    1.59570573e+01
  1917.0000 0.23767770    1.59309006e+01
  1917.5000 0.23773969    1.59048148e+01
  1918.0000 0.23780168    1.58787997e+01
  1918.5000 0.23786368    1.58528550e+01
  1919.0000 0.23792567    1.58269804e+01
  1919.5000 0.23798766    1.58011757e+01
  1920.0000 0.23804965    1.57754405e+01
  1920.5000 0.23811164    1.57497747e+01
  1921.0000 0.23817364    1.57241779e+01
  1921.5000 0.23823563    1.56986498e+01
  1922.0000 0.23829762    1.56731903e+01
  1922.5000 0.23835961    1.56477990e+01
  1923.0000 0.23842160    1.56224757e+01
  1923.5000 0.23848360    1.55972200e+01
  1924.0000 0.23854559    1.55720318e+01
  1924.5000 0.23860758    1.55469109e+01
  1925.0000 0.23866957    1.55218568e+01
  1925.5000 0.23873157    1.54968694e+01
  1926.0000 0.23879356    1.54719484e+01
  1926.5000 0.23885555    1.54470936e+01
  1927.0000 0.23891754    1.54223046e+01
  1927.5000 0.23897953    1.53975813e+01
  1928.0000 0.23904153    1.53729235e+01
  1928.5000 0.23910352    1.53483307e+01
  1929.0000 0.23916551    1.53238029e+01
  1929.5000 0.23922750    1.52993397e+01
  1930.0000 0.23928949    1.52749410e+01
  1930.5000 0.23935149    1.52506064e+01
  1931.0000 0.23941348    1.52263357e+01
  1931.5000 0.23947547    1.52021288e+01
  1932.0000 0.23953746    1.51779852e+01
  1932.5000 0.23959945    1.51539049e+01
  1933.0000 0.23966145    1.51298875e+01
  1933.5000 0.23972344    1.51059329e+01
  1934.0000 0.23978543    1.50820407e+01
  1934.5000 0.23984742    1.50582108e+01
  1935.0000 0.23990941    1.50344430e+01
  1935.5000 0.23997141    1.50107369e+01
  1936.0000 0.24003340    1.49870924e+01
  1936.5000 0.24009539    1.49635092e+01
  1937.0000 0.24015738    1.49399872e+01
  1937.5000 0.24021938    1.49165260e+01
  1938.0000 0.24028137    1.48931255e+01
  1938.5000 0.24034336    1.48697854e+01
  1939.0000 0.24040535    1.48465055e+01
  1939.5000 0.24046734    1.48232855e+01
  1940.0000 0.24052934    1.48001254e+01
  1940.5000 0.24059133    1.47770248e+01
  1941.0000 0.24065332    1.47539835e+01
  1941.5000 0.24071531    1.47310013e+01
  1942.0000 0.24077730    1.47080780e+01
  1942.5000 0.24083930    1.46852134e+01
  1943.0000 0.24090129    1.46624072e+01
  1943.5000 0.24096328    1.46396593e+01
  1944.0000 0.24102527    1.46169694e+01
  1944.5000 0.24108726    1.45943373e+01
  1945.0000 0.24114926    1.45717629e+01
  1945.5000 0.24121125    1.45492458e+01
  1946.0000 0.24127324    1.45267860e+01
  1946.5000 0.24133523    1.45043831e+01
  1947.0000 0.24139723    1.44820370e+01
  1947.5000 0.24145922    1.44597474e+01
  1948.0000 0.24152121    1.44375143e+01
  1948.5000 0.24158320    1.44153373e+01
  1949.0000 0.24164519    1.43932163e+01
  1949.5000 0.24170719    1.43711510e+01
  1950.0000 0.24176918    1.43491413e+01
  1950.5000 0.24183117    1.43271869e+01
  1951.0000 0.24189316    1.43052878e+01
  1951.5000 0.24195515    1.42834436e+01
  1952.0000 0.24201715    1.42616541e+01
  1952.5000 0.24207914    1.42399193e+01
  1953.0000 0.24214113    1.42182388e+01
  1953.5000 0.24220312    1.41966125e+01
  1954.0000 0.24226511    1.41750402e+01
  1954.5000 0.24232711    1.41535217e+01
  1955.0000 0.24238910    1.41320569e+01
  1955.5000 0.24245109    1.41106454e+01
  1956.0000 0.24251308    1.40892872e+01
  1956.5000 0.24257508    1.40679821e+01
  1957.0000 0.24263707    1.40467298e+01
  1957.5000 0.24269906    1.40255301e+01
  1958.0000 0.24276105    1.40043830e+01
  1958.5000 0.24282304    1.39832882e+01
  1959.0000 0.24288504    1.39622455e+01
  1959.5000 0.24294703    1.39412547e+01
  1960.0000 0.24300902    1.39203157e+01
  1960.5000 0.24307101    1.38994283e+01
  1961.0000 0.24313300    1.38785923e+01
  1961.5000 0.24319500    1.38578075e+01
  1962.0000 0.24325699    1.38370737e+01
  1962.5000 0.24331898    1.38163908e+01
  1963.0000 0.24338097    1.37957586e+01
  1963.5000 0.24344296    1.37751769e+01
  1964.0000 0.24350496    1.37546456e+01
  1964.5000 0.24356695    1.37341644e+01
  1965.0000 0.24362894    1.37137332e+01
  1965.5000 0.24369093    1.36933518e+01
  1966.0000 0.24375292    1.36730200e+01
  1966.5000 0.24381492    1.36527378e+01
  1967.0000 0.24387691    1.36325048e+01
  1967.5000 0.24393890    1.36123210e+01
  1968.0000 0.24400089    1.35921862e+01
  1968.5000 0.24406289    1.35721001e+01
  1969.0000 0.24412488    1.35520627e+01
  1969.5000 0.24418687    1.35320737e+01
  1970.0000 0.24424886    1.35121331e+01
  1970.5000 0.24431085    1.34922406e+01
  1971.0000 0.24437285    1.34723960e+01
  1971.5000 0.24443484    1.34525993e+01
  1972.0000 0.24449683    1.34328503e+01
  1972.5000 0.24455882    1.34131487e+01
  1973.0000 0.24462081    1.33934944e+01
  1973.5000 0.24468281    1.33738873e+01
  1974.0000 0.24474480    1.33543272e+01
  1974.5000 0.24480679    1.33348140e+01
  1975.0000 0.24486878    1.33153475e+01
  1975.5000 0.24493077    1.32959275e+01
  1976.0000 0.24499277    1.32765539e+01
  1976.5000 0.24505476    1.32572265e+01
  1977.0000 0.24511675    1.32379451e+01
  1977.5000 0.24517874    1.32187097e+01
  1978.0000 0.24524074    1.31995201e+01
  1978.5000 0.24530273    1.31803760e+01
  1979.0000 0.24536472    1.31612774e+01
  1979.5000 0.24542671    1.31422241e+01
  1980.0000 0.24548870    1.31232160e+01
  1980.5000 0.24555070    1.31042529e+01
  1981.0000 0.24561269    1.30853346e+01
  1981.5000 0.24567468    1.30664610e+01
  1982.0000 0.24573667    1.30476320e+01
  1982.5000 0.24579866    1.30288474e+01
  1983.0000 0.24586066    1.30101071e+01
  1983.5000 0.24592265    1.29914109e+01
  1984.0000 0.24598464    1.29727586e+01
  1984.5000 0.24604663    1.29541502e+01
  1985.0000 0.24610862    1.29355855e+01
  1985.5000 0.24617062    1.29170643e+01
  1986.0000 0.24623261    1.28985865e+01
  1986.5000 0.24629460    1.28801519e+01
  1987.0000 0.24635659    1.28617605e+01
  1987.5000 0.24641859    1.28434120e+01
  1988.0000 0.24648058    1.28251064e+01
  1988.5000 0.24654257    1.28068435e+01
  1989.0000 0.24660456    1.27886231e+01
  1989.5000 0.24666655    1.27704451e+01
  1990.0000 0.24672855    1.27523095e+01
  1990.5000 0.24679054    1.27342159e+01
  1991.0000 0.24685253    1.27161644e+01
  1991.5000 0.24691452    1.26981547e+01
  1992.0000 0.24697651    1.26801868e+01
  1992.5000 0.24703851    1.26622604e+01
  1993.0000 0.24710050    1.26443755e+01
  1993.5000 0.24716249    1.26265320e+01
  1994.0000 0.24722448    1.26087296e+01
  1994.5000 0.24728647    1.25909683e+01
  1995.0000 0.24734847    1.25732480e+01
  1995.5000 0.24741046    1.25555684e+01
  1996.0000 0.24747245    1.25379295e+01
  1996.5000 0.24753444    1.25203312e+01
  1997.0000 0.24759643    1.25027732e+01
  1997.5000 0.24765843    1.24852556e+01
  1998.0000 0.24772042    1.24677781e+01
  1998.5000 0.24778241    1.24503406e+01
  1999.0000 0.24784440    1.24329430e+01
  1999.5000 0.24790640    1.24155852e+01
  2000.0000 0.24796839    1.23982670e+01
