# 
# Calculated Spectral Density
# Lineshape: lor
# Linewidths (cm^-1): 5.0 
# 
# E (cm^-1)     E (eV)  Spectral Density (cm^-1)
# 
     0.0000 0.00000000    9.50548893e+00
     0.5000 0.00006199    9.59252731e+00
     1.0000 0.00012398    9.68294583e+00
     1.5000 0.00018598    9.77694611e+00
     2.0000 0.00024797    9.87474530e+00
     2.5000 0.00030996    9.97657746e+00
     3.0000 0.00037195    1.00826952e+01
     3.5000 0.00043394    1.01933716e+01
     4.0000 0.00049594    1.03089020e+01
     4.5000 0.00055793    1.04296064e+01
     5.0000 0.00061992    1.05558317e+01
     5.5000 0.00068191    1.06879549e+01
     6.0000 0.00074391    1.08263859e+01
     6.5000 0.00080590    1.09715712e+01
     7.0000 0.00086789    1.11239976e+01
     7.5000 0.00092988    1.12841971e+01
     8.0000 0.00099187    1.14527514e+01
     8.5000 0.00105387    1.16302980e+01
     9.0000 0.00111586    1.18175365e+01
     9.5000 0.00117785    1.20152361e+01
    10.0000 0.00123984    1.22242435e+01
    10.5000 0.00130183    1.24454930e+01
    11.0000 0.00136383    1.26800171e+01
    11.5000 0.00142582    1.29289588e+01
    12.0000 0.00148781    1.31935862e+01
    12.5000 0.00154980    1.34753089e+01
    13.0000 0.00161179    1.37756966e+01
    13.5000 0.00167379    1.40965015e+01
    14.0000 0.00173578    1.44396830e+01
    14.5000 0.00179777    1.48074378e+01
    15.0000 0.00185976    1.52022333e+01
    15.5000 0.00192176    1.56268474e+01
    16.0000 0.00198375    1.60844150e+01
    16.5000 0.00204574    1.65784818e+01
    17.0000 0.00210773    1.71130670e+01
    17.5000 0.00216972    1.76927377e+01
    18.0000 0.00223172    1.83226945e+01
    18.5000 0.00229371    1.90088726e+01
    19.0000 0.00235570    1.97580595e+01
    19.5000 0.00241769    2.05780323e+01
    20.0000 0.00247968    2.14777170e+01
    20.5000 0.00254168    2.24673718e+01
    21.0000 0.00260367    2.35587971e+01
    21.5000 0.00266566    2.47655717e+01
    22.0000 0.00272765    2.61033129e+01
    22.5000 0.00278964    2.75899533e+01
    23.0000 0.00285164    2.92460190e+01
    23.5000 0.00291363    3.10948804e+01
    24.0000 0.00297562    3.31629233e+01
    24.5000 0.00303761    3.54795576e+01
    25.0000 0.00309960    3.80769260e+01
    25.5000 0.00316160    4.09891014e+01
    26.0000 0.00322359    4.42504569e+01
    26.5000 0.00328558    4.78927600e+01
    27.0000 0.00334757    5.19403969e+01
    27.5000 0.00340957    5.64030324e+01
    28.0000 0.00347156    6.12650772e+01
    28.5000 0.00353355    6.64717944e+01
    29.0000 0.00359554    7.19130748e+01
    29.5000 0.00365753    7.74081363e+01
    30.0000 0.00371953    8.26975472e+01
    30.5000 0.00378152    8.74517493e+01
    31.0000 0.00384351    9.13047864e+01
    31.5000 0.00390550    9.39147991e+01
    32.0000 0.00396749    9.50388537e+01
    32.5000 0.00402949    9.45959115e+01
    33.0000 0.00409148    9.26902545e+01
    33.5000 0.00415347    8.95840730e+01
    34.0000 0.00421546    8.56324635e+01
    34.5000 0.00427745    8.12091133e+01
    35.0000 0.00433945    7.66480053e+01
    35.5000 0.00440144    7.22122425e+01
    36.0000 0.00446343    6.80875164e+01
    36.5000 0.00452542    6.43912537e+01
    37.0000 0.00458742    6.11884193e+01
    37.5000 0.00464941    5.85078516e+01
    38.0000 0.00471140    5.63560802e+01
    38.5000 0.00477339    5.47277040e+01
    39.0000 0.00483538    5.36124942e+01
    39.5000 0.00489738    5.29997684e+01
    40.0000 0.00495937    5.28805709e+01
    40.5000 0.00502136    5.32480065e+01
    41.0000 0.00508335    5.40958357e+01
    41.5000 0.00514534    5.54152027e+01
    42.0000 0.00520734    5.71891939e+01
    42.5000 0.00526933    5.93849095e+01
    43.0000 0.00533132    6.19430284e+01
    43.5000 0.00539331    6.47657122e+01
    44.0000 0.00545530    6.77053177e+01
    44.5000 0.00551730    7.05586719e+01
    45.0000 0.00557929    7.30736254e+01
    45.5000 0.00564128    7.49741020e+01
    46.0000 0.00570327    7.60044568e+01
    46.5000 0.00576527    7.59836628e+01
    47.0000 0.00582726    7.48500456e+01
    47.5000 0.00588925    7.26767027e+01
    48.0000 0.00595124    6.96500800e+01
    48.5000 0.00601323    6.60219588e+01
    49.0000 0.00607523    6.20555355e+01
    49.5000 0.00613722    5.79836642e+01
    50.0000 0.00619921    5.39868692e+01
    50.5000 0.00626120    5.01890309e+01
    51.0000 0.00632319    4.66641640e+01
    51.5000 0.00638519    4.34478020e+01
    52.0000 0.00644718    4.05486406e+01
    52.5000 0.00650917    3.79583201e+01
    53.0000 0.00657116    3.56587405e+01
    53.5000 0.00663315    3.36270895e+01
    54.0000 0.00669515    3.18390474e+01
    54.5000 0.00675714    3.02706569e+01
    55.0000 0.00681913    2.88992641e+01
    55.5000 0.00688112    2.77038382e+01
    56.0000 0.00694311    2.66648964e+01
    56.5000 0.00700511    2.57642169e+01
    57.0000 0.00706710    2.49845081e+01
    57.5000 0.00712909    2.43092008e+01
    58.0000 0.00719108    2.37224847e+01
    58.5000 0.00725308    2.32095946e+01
    59.0000 0.00731507    2.27571507e+01
    59.5000 0.00737706    2.23532042e+01
    60.0000 0.00743905    2.19867026e+01
    60.5000 0.00750104    2.16464424e+01
    61.0000 0.00756304    2.13200411e+01
    61.5000 0.00762503    2.09937100e+01
    62.0000 0.00768702    2.06533885e+01
    62.5000 0.00774901    2.02871409e+01
    63.0000 0.00781100    1.98879186e+01
    63.5000 0.00787300    1.94553779e+01
    64.0000 0.00793499    1.89958130e+01
    64.5000 0.00799698    1.85202387e+01
    65.0000 0.00805897    1.80415484e+01
    65.5000 0.00812096    1.75718935e+01
    66.0000 0.00818296    1.71210050e+01
    66.5000 0.00824495    1.66955729e+01
    67.0000 0.00830694    1.62994051e+01
    67.5000 0.00836893    1.59339852e+01
    68.0000 0.00843093    1.55991332e+01
    68.5000 0.00849292    1.52935998e+01
    69.0000 0.00855491    1.50155286e+01
    69.5000 0.00861690    1.47627843e+01
    70.0000 0.00867889    1.45331665e+01
    70.5000 0.00874089    1.43245403e+01
    71.0000 0.00880288    1.41349073e+01
    71.5000 0.00886487    1.39624402e+01
    72.0000 0.00892686    1.38054924e+01
    72.5000 0.00898885    1.36625944e+01
    73.0000 0.00905085    1.35324430e+01
    73.5000 0.00911284    1.34138869e+01
    74.0000 0.00917483    1.33059110e+01
    74.5000 0.00923682    1.32076212e+01
    75.0000 0.00929881    1.31182304e+01
    75.5000 0.00936081    1.30370456e+01
    76.0000 0.00942280    1.29634563e+01
    76.5000 0.00948479    1.28969246e+01
    77.0000 0.00954678    1.28369768e+01
    77.5000 0.00960878    1.27831954e+01
    78.0000 0.00967077    1.27352129e+01
    78.5000 0.00973276    1.26927063e+01
    79.0000 0.00979475    1.26553924e+01
    79.5000 0.00985674    1.26230236e+01
    80.0000 0.00991874    1.25953849e+01
    80.5000 0.00998073    1.25722906e+01
    81.0000 0.01004272    1.25535822e+01
    81.5000 0.01010471    1.25391265e+01
    82.0000 0.01016670    1.25288137e+01
    82.5000 0.01022870    1.25225565e+01
    83.0000 0.01029069    1.25202887e+01
    83.5000 0.01035268    1.25219650e+01
    84.0000 0.01041467    1.25275605e+01
    84.5000 0.01047666    1.25370701e+01
    85.0000 0.01053866    1.25505091e+01
    85.5000 0.01060065    1.25679135e+01
    86.0000 0.01066264    1.25893402e+01
    86.5000 0.01072463    1.26148684e+01
    87.0000 0.01078662    1.26446003e+01
    87.5000 0.01084862    1.26786629e+01
    88.0000 0.01091061    1.27172098e+01
    88.5000 0.01097260    1.27604229e+01
    89.0000 0.01103459    1.28085159e+01
    89.5000 0.01109659    1.28617363e+01
    90.0000 0.01115858    1.29203700e+01
    90.5000 0.01122057    1.29847450e+01
    91.0000 0.01128256    1.30552366e+01
    91.5000 0.01134455    1.31322731e+01
    92.0000 0.01140655    1.32163429e+01
    92.5000 0.01146854    1.33080019e+01
    93.0000 0.01153053    1.34078836e+01
    93.5000 0.01159252    1.35167093e+01
    94.0000 0.01165451    1.36353012e+01
    94.5000 0.01171651    1.37645971e+01
    95.0000 0.01177850    1.39056683e+01
    95.5000 0.01184049    1.40597394e+01
    96.0000 0.01190248    1.42282132e+01
    96.5000 0.01196447    1.44126982e+01
    97.0000 0.01202647    1.46150417e+01
    97.5000 0.01208846    1.48373681e+01
    98.0000 0.01215045    1.50821241e+01
    98.5000 0.01221244    1.53521292e+01
    99.0000 0.01227444    1.56506356e+01
    99.5000 0.01233643    1.59813940e+01
   100.0000 0.01239842    1.63487270e+01
   100.5000 0.01246041    1.67576073e+01
   101.0000 0.01252240    1.72137363e+01
   101.5000 0.01258440    1.77236151e+01
   102.0000 0.01264639    1.82945943e+01
   102.5000 0.01270838    1.89348779e+01
   103.0000 0.01277037    1.96534439e+01
   103.5000 0.01283236    2.04598224e+01
   104.0000 0.01289436    2.13636423e+01
   104.5000 0.01295635    2.23738197e+01
   105.0000 0.01301834    2.34972214e+01
   105.5000 0.01308033    2.47366034e+01
   106.0000 0.01314232    2.60876425e+01
   106.5000 0.01320432    2.75350008e+01
   107.0000 0.01326631    2.90476898e+01
   107.5000 0.01332830    3.05746267e+01
   108.0000 0.01339029    3.20421599e+01
   108.5000 0.01345229    3.33561669e+01
   109.0000 0.01351428    3.44112659e+01
   109.5000 0.01357627    3.51077626e+01
   110.0000 0.01363826    3.53730176e+01
   110.5000 0.01370025    3.51798865e+01
   111.0000 0.01376225    3.45541868e+01
   111.5000 0.01382424    3.35675879e+01
   112.0000 0.01388623    3.23193595e+01
   112.5000 0.01394822    3.09149751e+01
   113.0000 0.01401021    2.94489904e+01
   113.5000 0.01407221    2.79956288e+01
   114.0000 0.01413420    2.66065292e+01
   114.5000 0.01419619    2.53131383e+01
   115.0000 0.01425818    2.41311305e+01
   115.5000 0.01432017    2.30650531e+01
   116.0000 0.01438217    2.21122847e+01
   116.5000 0.01444416    2.12660294e+01
   117.0000 0.01450615    2.05173984e+01
   117.5000 0.01456814    1.98567630e+01
   118.0000 0.01463013    1.92745774e+01
   118.5000 0.01469213    1.87618390e+01
   119.0000 0.01475412    1.83103154e+01
   119.5000 0.01481611    1.79126263e+01
   120.0000 0.01487810    1.75622411e+01
   120.5000 0.01494010    1.72534299e+01
   121.0000 0.01500209    1.69811931e+01
   121.5000 0.01506408    1.67411823e+01
   122.0000 0.01512607    1.65296225e+01
   122.5000 0.01518806    1.63432383e+01
   123.0000 0.01525006    1.61791873e+01
   123.5000 0.01531205    1.60350011e+01
   124.0000 0.01537404    1.59085333e+01
   124.5000 0.01543603    1.57979150e+01
   125.0000 0.01549802    1.57015157e+01
   125.5000 0.01556002    1.56179105e+01
   126.0000 0.01562201    1.55458516e+01
   126.5000 0.01568400    1.54842441e+01
   127.0000 0.01574599    1.54321252e+01
   127.5000 0.01580798    1.53886468e+01
   128.0000 0.01586998    1.53530602e+01
   128.5000 0.01593197    1.53247028e+01
   129.0000 0.01599396    1.53029879e+01
   129.5000 0.01605595    1.52873942e+01
   130.0000 0.01611795    1.52774582e+01
   130.5000 0.01617994    1.52727671e+01
   131.0000 0.01624193    1.52729524e+01
   131.5000 0.01630392    1.52776850e+01
   132.0000 0.01636591    1.52866704e+01
   132.5000 0.01642791    1.52996447e+01
   133.0000 0.01648990    1.53163715e+01
   133.5000 0.01655189    1.53366384e+01
   134.0000 0.01661388    1.53602549e+01
   134.5000 0.01667587    1.53870495e+01
   135.0000 0.01673787    1.54168683e+01
   135.5000 0.01679986    1.54495727e+01
   136.0000 0.01686185    1.54850384e+01
   136.5000 0.01692384    1.55231534e+01
   137.0000 0.01698583    1.55638173e+01
   137.5000 0.01704783    1.56069401e+01
   138.0000 0.01710982    1.56524409e+01
   138.5000 0.01717181    1.57002476e+01
   139.0000 0.01723380    1.57502960e+01
   139.5000 0.01729580    1.58025287e+01
   140.0000 0.01735779    1.58568953e+01
   140.5000 0.01741978    1.59133510e+01
   141.0000 0.01748177    1.59718568e+01
   141.5000 0.01754376    1.60323790e+01
   142.0000 0.01760576    1.60948885e+01
   142.5000 0.01766775    1.61593606e+01
   143.0000 0.01772974    1.62257751e+01
   143.5000 0.01779173    1.62941153e+01
   144.0000 0.01785372    1.63643684e+01
   144.5000 0.01791572    1.64365252e+01
   145.0000 0.01797771    1.65105795e+01
   145.5000 0.01803970    1.65865286e+01
   146.0000 0.01810169    1.66643725e+01
   146.5000 0.01816368    1.67441142e+01
   147.0000 0.01822568    1.68257596e+01
   147.5000 0.01828767    1.69093171e+01
   148.0000 0.01834966    1.69947978e+01
   148.5000 0.01841165    1.70822154e+01
   149.0000 0.01847364    1.71715861e+01
   149.5000 0.01853564    1.72629285e+01
   150.0000 0.01859763    1.73562638e+01
   150.5000 0.01865962    1.74516155e+01
   151.0000 0.01872161    1.75490096e+01
   151.5000 0.01878361    1.76484746e+01
   152.0000 0.01884560    1.77500414e+01
   152.5000 0.01890759    1.78537434e+01
   153.0000 0.01896958    1.79596167e+01
   153.5000 0.01903157    1.80676997e+01
   154.0000 0.01909357    1.81780338e+01
   154.5000 0.01915556    1.82906629e+01
   155.0000 0.01921755    1.84056337e+01
   155.5000 0.01927954    1.85229960e+01
   156.0000 0.01934153    1.86428025e+01
   156.5000 0.01940353    1.87651092e+01
   157.0000 0.01946552    1.88899752e+01
   157.5000 0.01952751    1.90174633e+01
   158.0000 0.01958950    1.91476399e+01
   158.5000 0.01965149    1.92805751e+01
   159.0000 0.01971349    1.94163433e+01
   159.5000 0.01977548    1.95550231e+01
   160.0000 0.01983747    1.96966977e+01
   160.5000 0.01989946    1.98414554e+01
   161.0000 0.01996146    1.99893896e+01
   161.5000 0.02002345    2.01405995e+01
   162.0000 0.02008544    2.02951902e+01
   162.5000 0.02014743    2.04532736e+01
   163.0000 0.02020942    2.06149685e+01
   163.5000 0.02027142    2.07804016e+01
   164.0000 0.02033341    2.09497079e+01
   164.5000 0.02039540    2.11230315e+01
   165.0000 0.02045739    2.13005268e+01
   165.5000 0.02051938    2.14823588e+01
   166.0000 0.02058138    2.16687051e+01
   166.5000 0.02064337    2.18597563e+01
   167.0000 0.02070536    2.20557179e+01
   167.5000 0.02076735    2.22568121e+01
   168.0000 0.02082934    2.24632792e+01
   168.5000 0.02089134    2.26753800e+01
   169.0000 0.02095333    2.28933985e+01
   169.5000 0.02101532    2.31176444e+01
   170.0000 0.02107731    2.33484567e+01
   170.5000 0.02113931    2.35862074e+01
   171.0000 0.02120130    2.38313059e+01
   171.5000 0.02126329    2.40842044e+01
   172.0000 0.02132528    2.43454037e+01
   172.5000 0.02138727    2.46154604e+01
   173.0000 0.02144927    2.48949948e+01
   173.5000 0.02151126    2.51847005e+01
   174.0000 0.02157325    2.54853552e+01
   174.5000 0.02163524    2.57978334e+01
   175.0000 0.02169723    2.61231201e+01
   175.5000 0.02175923    2.64623274e+01
   176.0000 0.02182122    2.68167113e+01
   176.5000 0.02188321    2.71876908e+01
   177.0000 0.02194520    2.75768656e+01
   177.5000 0.02200719    2.79860332e+01
   178.0000 0.02206919    2.84171988e+01
   178.5000 0.02213118    2.88725755e+01
   179.0000 0.02219317    2.93545627e+01
   179.5000 0.02225516    2.98656902e+01
   180.0000 0.02231715    3.04085059e+01
   180.5000 0.02237915    3.09853784e+01
   181.0000 0.02244114    3.15981740e+01
   181.5000 0.02250313    3.22477653e+01
   182.0000 0.02256512    3.29333339e+01
   182.5000 0.02262712    3.36514647e+01
   183.0000 0.02268911    3.43951139e+01
   183.5000 0.02275110    3.51526869e+01
   184.0000 0.02281309    3.59076610e+01
   184.5000 0.02287508    3.66393499e+01
   185.0000 0.02293708    3.73253191e+01
   185.5000 0.02299907    3.79454349e+01
   186.0000 0.02306106    3.84866038e+01
   186.5000 0.02312305    3.89464628e+01
   187.0000 0.02318504    3.93343633e+01
   187.5000 0.02324704    3.96691759e+01
   188.0000 0.02330903    3.99749699e+01
   188.5000 0.02337102    4.02763991e+01
   189.0000 0.02343301    4.05952797e+01
   189.5000 0.02349500    4.09489064e+01
   190.0000 0.02355700    4.13498515e+01
   190.5000 0.02361899    4.18066609e+01
   191.0000 0.02368098    4.23248973e+01
   191.5000 0.02374297    4.29081812e+01
   192.0000 0.02380497    4.35590634e+01
   192.5000 0.02386696    4.42796908e+01
   193.0000 0.02392895    4.50722864e+01
   193.5000 0.02399094    4.59394880e+01
   194.0000 0.02405293    4.68845906e+01
   194.5000 0.02411493    4.79117285e+01
   195.0000 0.02417692    4.90260265e+01
   195.5000 0.02423891    5.02337400e+01
   196.0000 0.02430090    5.15423984e+01
   196.5000 0.02436289    5.29609608e+01
   197.0000 0.02442489    5.44999905e+01
   197.5000 0.02448688    5.61718506e+01
   198.0000 0.02454887    5.79909169e+01
   198.5000 0.02461086    5.99738030e+01
   199.0000 0.02467285    6.21395775e+01
   199.5000 0.02473485    6.45099443e+01
   200.0000 0.02479684    6.71093290e+01
   200.5000 0.02485883    6.99647850e+01
   201.0000 0.02492082    7.31055772e+01
   201.5000 0.02498282    7.65622297e+01
   202.0000 0.02504481    8.03647242e+01
   202.5000 0.02510680    8.45394211e+01
   203.0000 0.02516879    8.91041620e+01
   203.5000 0.02523078    9.40609839e+01
   204.0000 0.02529278    9.93860635e+01
   204.5000 0.02535477    1.05017156e+02
   205.0000 0.02541676    1.10840187e+02
   205.5000 0.02547875    1.16678922e+02
   206.0000 0.02554074    1.22294297e+02
   206.5000 0.02560274    1.27401287e+02
   207.0000 0.02566473    1.31708320e+02
   207.5000 0.02572672    1.34975231e+02
   208.0000 0.02578871    1.37073161e+02
   208.5000 0.02585070    1.38022427e+02
   209.0000 0.02591270    1.37990751e+02
   209.5000 0.02597469    1.37252812e+02
   210.0000 0.02603668    1.36130016e+02
   210.5000 0.02609867    1.34934262e+02
   211.0000 0.02616066    1.33931179e+02
   211.5000 0.02622266    1.33325777e+02
   212.0000 0.02628465    1.33264979e+02
   212.5000 0.02634664    1.33849148e+02
   213.0000 0.02640863    1.35146252e+02
   213.5000 0.02647063    1.37204963e+02
   214.0000 0.02653262    1.40065134e+02
   214.5000 0.02659461    1.43765410e+02
   215.0000 0.02665660    1.48348224e+02
   215.5000 0.02671859    1.53862489e+02
   216.0000 0.02678059    1.60364152e+02
   216.5000 0.02684258    1.67914397e+02
   217.0000 0.02690457    1.76574956e+02
   217.5000 0.02696656    1.86399555e+02
   218.0000 0.02702855    1.97420199e+02
   218.5000 0.02709055    2.09626940e+02
   219.0000 0.02715254    2.22940435e+02
   219.5000 0.02721453    2.37178564e+02
   220.0000 0.02727652    2.52022425e+02
   220.5000 0.02733851    2.66993215e+02
   221.0000 0.02740051    2.81457955e+02
   221.5000 0.02746250    2.94683600e+02
   222.0000 0.02752449    3.05948206e+02
   222.5000 0.02758648    3.14691407e+02
   223.0000 0.02764848    3.20654867e+02
   223.5000 0.02771047    3.23951005e+02
   224.0000 0.02777246    3.25023665e+02
   224.5000 0.02783445    3.24516060e+02
   225.0000 0.02789644    3.23103346e+02
   225.5000 0.02795844    3.21353201e+02
   226.0000 0.02802043    3.19653423e+02
   226.5000 0.02808242    3.18213362e+02
   227.0000 0.02814441    3.17121930e+02
   227.5000 0.02820640    3.16431474e+02
   228.0000 0.02826840    3.16233417e+02
   228.5000 0.02833039    3.16699722e+02
   229.0000 0.02839238    3.18082780e+02
   229.5000 0.02845437    3.20685904e+02
   230.0000 0.02851636    3.24825955e+02
   230.5000 0.02857836    3.30805630e+02
   231.0000 0.02864035    3.38902357e+02
   231.5000 0.02870234    3.49371714e+02
   232.0000 0.02876433    3.62459469e+02
   232.5000 0.02882633    3.78416553e+02
   233.0000 0.02888832    3.97513093e+02
   233.5000 0.02895031    4.20049285e+02
   234.0000 0.02901230    4.46361700e+02
   234.5000 0.02907429    4.76823553e+02
   235.0000 0.02913629    5.11836680e+02
   235.5000 0.02919828    5.51811544e+02
   236.0000 0.02926027    5.97129760e+02
   236.5000 0.02932226    6.48081583e+02
   237.0000 0.02938425    7.04769297e+02
   237.5000 0.02944625    7.66968108e+02
   238.0000 0.02950824    8.33941940e+02
   238.5000 0.02957023    9.04226922e+02
   239.0000 0.02963222    9.75424435e+02
   239.5000 0.02969421    1.04408721e+03
   240.0000 0.02975621    1.10581991e+03
   240.5000 0.02981820    1.15571240e+03
   241.0000 0.02988019    1.18913296e+03
   241.5000 0.02994218    1.20272473e+03
   242.0000 0.03000417    1.19526164e+03
   242.5000 0.03006617    1.16798948e+03
   243.0000 0.03012816    1.12428772e+03
   243.5000 0.03019015    1.06881538e+03
   244.0000 0.03025214    1.00651468e+03
   244.5000 0.03031414    9.41816962e+02
   245.0000 0.03037613    8.78208326e+02
   245.5000 0.03043812    8.18128448e+02
   246.0000 0.03050011    7.63084399e+02
   246.5000 0.03056210    7.13858076e+02
   247.0000 0.03062410    6.70723560e+02
   247.5000 0.03068609    6.33632459e+02
   248.0000 0.03074808    6.02354428e+02
   248.5000 0.03081007    5.76575543e+02
   249.0000 0.03087206    5.55963092e+02
   249.5000 0.03093406    5.40206038e+02
   250.0000 0.03099605    5.29039080e+02
   250.5000 0.03105804    5.22256201e+02
   251.0000 0.03112003    5.19717874e+02
   251.5000 0.03118202    5.21354629e+02
   252.0000 0.03124402    5.27168610e+02
   252.5000 0.03130601    5.37233922e+02
   253.0000 0.03136800    5.51695882e+02
   253.5000 0.03142999    5.70768620e+02
   254.0000 0.03149199    5.94729693e+02
   254.5000 0.03155398    6.23909396e+02
   255.0000 0.03161597    6.58671174e+02
   255.5000 0.03167796    6.99377813e+02
   256.0000 0.03173995    7.46336230e+02
   256.5000 0.03180195    7.99711952e+02
   257.0000 0.03186394    8.59404272e+02
   257.5000 0.03192593    9.24876899e+02
   258.0000 0.03198792    9.94950864e+02
   258.5000 0.03204991    1.06759096e+03
   259.0000 0.03211191    1.13975525e+03
   259.5000 0.03217390    1.20741884e+03
   260.0000 0.03223589    1.26589706e+03
   260.5000 0.03229788    1.31053280e+03
   261.0000 0.03235987    1.33765401e+03
   261.5000 0.03242187    1.34550725e+03
   262.0000 0.03248386    1.33478139e+03
   262.5000 0.03254585    1.30847448e+03
   263.0000 0.03260784    1.27116972e+03
   263.5000 0.03266984    1.22805120e+03
   264.0000 0.03273183    1.18403085e+03
   264.5000 0.03279382    1.14320290e+03
   265.0000 0.03285581    1.10864321e+03
   265.5000 0.03291780    1.08244918e+03
   266.0000 0.03297980    1.06588849e+03
   266.5000 0.03304179    1.05955367e+03
   267.0000 0.03310378    1.06346093e+03
   267.5000 0.03316577    1.07706636e+03
   268.0000 0.03322776    1.09919814e+03
   268.5000 0.03328976    1.12792820e+03
   269.0000 0.03335175    1.16043767e+03
   269.5000 0.03341374    1.19296841e+03
   270.0000 0.03347573    1.22098181e+03
   270.5000 0.03353772    1.23962770e+03
   271.0000 0.03359972    1.24452325e+03
   271.5000 0.03366171    1.23266247e+03
   272.0000 0.03372370    1.20312245e+03
   272.5000 0.03378569    1.15724802e+03
   273.0000 0.03384768    1.09822357e+03
   273.5000 0.03390968    1.03023502e+03
   274.0000 0.03397167    9.57574706e+02
   274.5000 0.03403366    8.83975516e+02
   275.0000 0.03409565    8.12279572e+02
   275.5000 0.03415765    7.44392521e+02
   276.0000 0.03421964    6.81410015e+02
   276.5000 0.03428163    6.23810897e+02
   277.0000 0.03434362    5.71649004e+02
   277.5000 0.03440561    5.24711746e+02
   278.0000 0.03446761    4.82637503e+02
   278.5000 0.03452960    4.44995879e+02
   279.0000 0.03459159    4.11338943e+02
   279.5000 0.03465358    3.81231716e+02
   280.0000 0.03471557    3.54268684e+02
   280.5000 0.03477757    3.30081384e+02
   281.0000 0.03483956    3.08340551e+02
   281.5000 0.03490155    2.88755127e+02
   282.0000 0.03496354    2.71069636e+02
   282.5000 0.03502553    2.55060799e+02
   283.0000 0.03508753    2.40533960e+02
   283.5000 0.03514952    2.27319596e+02
   284.0000 0.03521151    2.15270086e+02
   284.5000 0.03527350    2.04256802e+02
   285.0000 0.03533550    1.94167532e+02
   285.5000 0.03539749    1.84904240e+02
   286.0000 0.03545948    1.76381111e+02
   286.5000 0.03552147    1.68522884e+02
   287.0000 0.03558346    1.61263408e+02
   287.5000 0.03564546    1.54544412e+02
   288.0000 0.03570745    1.48314451e+02
   288.5000 0.03576944    1.42527998e+02
   289.0000 0.03583143    1.37144675e+02
   289.5000 0.03589342    1.32128590e+02
   290.0000 0.03595542    1.27447764e+02
   290.5000 0.03601741    1.23073645e+02
   291.0000 0.03607940    1.18980684e+02
   291.5000 0.03614139    1.15145974e+02
   292.0000 0.03620338    1.11548933e+02
   292.5000 0.03626538    1.08171034e+02
   293.0000 0.03632737    1.04995565e+02
   293.5000 0.03638936    1.02007430e+02
   294.0000 0.03645135    9.91929623e+01
   294.5000 0.03651335    9.65397728e+01
   295.0000 0.03657534    9.40366115e+01
   295.5000 0.03663733    9.16732481e+01
   296.0000 0.03669932    8.94403658e+01
   296.5000 0.03676131    8.73294694e+01
   297.0000 0.03682331    8.53328028e+01
   297.5000 0.03688530    8.34432774e+01
   298.0000 0.03694729    8.16544078e+01
   298.5000 0.03700928    7.99602556e+01
   299.0000 0.03707127    7.83553796e+01
   299.5000 0.03713327    7.68347904e+01
   300.0000 0.03719526    7.53939120e+01
   300.5000 0.03725725    7.40285461e+01
   301.0000 0.03731924    7.27348412e+01
   301.5000 0.03738123    7.15092648e+01
   302.0000 0.03744323    7.03485787e+01
   302.5000 0.03750522    6.92498175e+01
   303.0000 0.03756721    6.82102693e+01
   303.5000 0.03762920    6.72274582e+01
   304.0000 0.03769119    6.62991301e+01
   304.5000 0.03775319    6.54232392e+01
   305.0000 0.03781518    6.45979368e+01
   305.5000 0.03787717    6.38215619e+01
   306.0000 0.03793916    6.30926333e+01
   306.5000 0.03800116    6.24098424e+01
   307.0000 0.03806315    6.17720492e+01
   307.5000 0.03812514    6.11782776e+01
   308.0000 0.03818713    6.06277140e+01
   308.5000 0.03824912    6.01197062e+01
   309.0000 0.03831112    5.96537643e+01
   309.5000 0.03837311    5.92295627e+01
   310.0000 0.03843510    5.88469446e+01
   310.5000 0.03849709    5.85059274e+01
   311.0000 0.03855908    5.82067109e+01
   311.5000 0.03862108    5.79496865e+01
   312.0000 0.03868307    5.77354505e+01
   312.5000 0.03874506    5.75648186e+01
   313.0000 0.03880705    5.74388444e+01
   313.5000 0.03886904    5.73588410e+01
   314.0000 0.03893104    5.73264074e+01
   314.5000 0.03899303    5.73434588e+01
   315.0000 0.03905502    5.74122631e+01
   315.5000 0.03911701    5.75354834e+01
   316.0000 0.03917901    5.77162287e+01
   316.5000 0.03924100    5.79581125e+01
   317.0000 0.03930299    5.82653230e+01
   317.5000 0.03936498    5.86427040e+01
   318.0000 0.03942697    5.90958519e+01
   318.5000 0.03948897    5.96312273e+01
   319.0000 0.03955096    6.02562879e+01
   319.5000 0.03961295    6.09796427e+01
   320.0000 0.03967494    6.18112319e+01
   320.5000 0.03973693    6.27625361e+01
   321.0000 0.03979893    6.38468170e+01
   321.5000 0.03986092    6.50793914e+01
   322.0000 0.03992291    6.64779380e+01
   322.5000 0.03998490    6.80628338e+01
   323.0000 0.04004689    6.98575058e+01
   323.5000 0.04010889    7.18887765e+01
   324.0000 0.04017088    7.41871589e+01
   324.5000 0.04023287    7.67870252e+01
   325.0000 0.04029486    7.97265262e+01
   325.5000 0.04035686    8.30470637e+01
   326.0000 0.04041885    8.67920135e+01
   326.5000 0.04048084    9.10042515e+01
   327.0000 0.04054283    9.57218596e+01
   327.5000 0.04060482    1.00971209e+02
   328.0000 0.04066682    1.06756527e+02
   328.5000 0.04072881    1.13045249e+02
   329.0000 0.04079080    1.19749245e+02
   329.5000 0.04085279    1.26703894e+02
   330.0000 0.04091478    1.33650190e+02
   330.5000 0.04097678    1.40229175e+02
   331.0000 0.04103877    1.46000856e+02
   331.5000 0.04110076    1.50497114e+02
   332.0000 0.04116275    1.53306295e+02
   332.5000 0.04122474    1.54168060e+02
   333.0000 0.04128674    1.53042425e+02
   333.5000 0.04134873    1.50121458e+02
   334.0000 0.04141072    1.45777919e+02
   334.5000 0.04147271    1.40475169e+02
   335.0000 0.04153470    1.34675525e+02
   335.5000 0.04159670    1.28775016e+02
   336.0000 0.04165869    1.23073183e+02
   336.5000 0.04172068    1.17771445e+02
   337.0000 0.04178267    1.12987959e+02
   337.5000 0.04184467    1.08778316e+02
   338.0000 0.04190666    1.05155499e+02
   338.5000 0.04196865    1.02106133e+02
   339.0000 0.04203064    9.96024197e+01
   339.5000 0.04209263    9.76102782e+01
   340.0000 0.04215463    9.60945568e+01
   340.5000 0.04221662    9.50221694e+01
   341.0000 0.04227861    9.43638521e+01
   341.5000 0.04234060    9.40950463e+01
   342.0000 0.04240259    9.41962610e+01
   342.5000 0.04246459    9.46531486e+01
   343.0000 0.04252658    9.54564444e+01
   343.5000 0.04258857    9.66018648e+01
   344.0000 0.04265056    9.80900219e+01
   344.5000 0.04271255    9.99263928e+01
   345.0000 0.04277455    1.02121365e+02
   345.5000 0.04283654    1.04690374e+02
   346.0000 0.04289853    1.07654146e+02
   346.5000 0.04296052    1.11039059e+02
   347.0000 0.04302252    1.14877628e+02
   347.5000 0.04308451    1.19209136e+02
   348.0000 0.04314650    1.24080423e+02
   348.5000 0.04320849    1.29546845e+02
   349.0000 0.04327048    1.35673438e+02
   349.5000 0.04333248    1.42536283e+02
   350.0000 0.04339447    1.50224111e+02
   350.5000 0.04345646    1.58840140e+02
   351.0000 0.04351845    1.68504140e+02
   351.5000 0.04358044    1.79354684e+02
   352.0000 0.04364244    1.91551496e+02
   352.5000 0.04370443    2.05277702e+02
   353.0000 0.04376642    2.20741647e+02
   353.5000 0.04382841    2.38177720e+02
   354.0000 0.04389040    2.57845244e+02
   354.5000 0.04395240    2.80023964e+02
   355.0000 0.04401439    3.05003885e+02
   355.5000 0.04407638    3.33066197e+02
   356.0000 0.04413837    3.64450773e+02
   356.5000 0.04420037    3.99304592e+02
   357.0000 0.04426236    4.37605092e+02
   357.5000 0.04432435    4.79054419e+02
   358.0000 0.04438634    5.22947260e+02
   358.5000 0.04444833    5.68029519e+02
   359.0000 0.04451033    6.12388796e+02
   359.5000 0.04457232    6.53445459e+02
   360.0000 0.04463431    6.88126950e+02
   360.5000 0.04469630    7.13278252e+02
   361.0000 0.04475829    7.26267104e+02
   361.5000 0.04482029    7.25610979e+02
   362.0000 0.04488228    7.11374443e+02
   362.5000 0.04494427    6.85151111e+02
   363.0000 0.04500626    6.49639033e+02
   363.5000 0.04506825    6.08006439e+02
   364.0000 0.04513025    5.63297503e+02
   364.5000 0.04519224    5.18040979e+02
   365.0000 0.04525423    4.74093373e+02
   365.5000 0.04531622    4.32659010e+02
   366.0000 0.04537821    3.94404299e+02
   366.5000 0.04544021    3.59599464e+02
   367.0000 0.04550220    3.28248954e+02
   367.5000 0.04556419    3.00194820e+02
   368.0000 0.04562618    2.75191135e+02
   368.5000 0.04568818    2.52953795e+02
   369.0000 0.04575017    2.33191740e+02
   369.5000 0.04581216    2.15625138e+02
   370.0000 0.04587415    1.99994978e+02
   370.5000 0.04593614    1.86067211e+02
   371.0000 0.04599814    1.73633637e+02
   371.5000 0.04606013    1.62510949e+02
   372.0000 0.04612212    1.52538829e+02
   372.5000 0.04618411    1.43577643e+02
   373.0000 0.04624610    1.35506057e+02
   373.5000 0.04630810    1.28218754e+02
   374.0000 0.04637009    1.21624322e+02
   374.5000 0.04643208    1.15643375e+02
   375.0000 0.04649407    1.10206897e+02
   375.5000 0.04655606    1.05254796e+02
   376.0000 0.04661806    1.00734661e+02
   376.5000 0.04668005    9.66006920e+01
   377.0000 0.04674204    9.28127840e+01
   377.5000 0.04680403    8.93357435e+01
   378.0000 0.04686603    8.61386198e+01
   378.5000 0.04692802    8.31941331e+01
   379.0000 0.04699001    8.04781860e+01
   379.5000 0.04705200    7.79694456e+01
   380.0000 0.04711399    7.56489852e+01
   380.5000 0.04717599    7.34999775e+01
   381.0000 0.04723798    7.15074302e+01
   381.5000 0.04729997    6.96579586e+01
   382.0000 0.04736196    6.79395902e+01
   382.5000 0.04742395    6.63415946e+01
   383.0000 0.04748595    6.48543367e+01
   383.5000 0.04754794    6.34691501e+01
   384.0000 0.04760993    6.21782254e+01
   384.5000 0.04767192    6.09745145e+01
   385.0000 0.04773391    5.98516459e+01
   385.5000 0.04779591    5.88038512e+01
   386.0000 0.04785790    5.78259007e+01
   386.5000 0.04791989    5.69130461e+01
   387.0000 0.04798188    5.60609715e+01
   387.5000 0.04804388    5.52657486e+01
   388.0000 0.04810587    5.45237982e+01
   388.5000 0.04816786    5.38318563e+01
   389.0000 0.04822985    5.31869427e+01
   389.5000 0.04829184    5.25863352e+01
   390.0000 0.04835384    5.20275444e+01
   390.5000 0.04841583    5.15082935e+01
   391.0000 0.04847782    5.10264984e+01
   391.5000 0.04853981    5.05802513e+01
   392.0000 0.04860180    5.01678052e+01
   392.5000 0.04866380    4.97875604e+01
   393.0000 0.04872579    4.94380528e+01
   393.5000 0.04878778    4.91179422e+01
   394.0000 0.04884977    4.88260035e+01
   394.5000 0.04891176    4.85611172e+01
   395.0000 0.04897376    4.83222619e+01
   395.5000 0.04903575    4.81085073e+01
   396.0000 0.04909774    4.79190078e+01
   396.5000 0.04915973    4.77529970e+01
   397.0000 0.04922172    4.76097824e+01
   397.5000 0.04928372    4.74887408e+01
   398.0000 0.04934571    4.73893148e+01
   398.5000 0.04940770    4.73110086e+01
   399.0000 0.04946969    4.72533850e+01
   399.5000 0.04953169    4.72160628e+01
   400.0000 0.04959368    4.71987141e+01
   400.5000 0.04965567    4.72010619e+01
   401.0000 0.04971766    4.72228788e+01
   401.5000 0.04977965    4.72639851e+01
   402.0000 0.04984165    4.73242472e+01
   402.5000 0.04990364    4.74035770e+01
   403.0000 0.04996563    4.75019310e+01
   403.5000 0.05002762    4.76193092e+01
   404.0000 0.05008961    4.77557553e+01
   404.5000 0.05015161    4.79113562e+01
   405.0000 0.05021360    4.80862421e+01
   405.5000 0.05027559    4.82805867e+01
   406.0000 0.05033758    4.84946078e+01
   406.5000 0.05039957    4.87285680e+01
   407.0000 0.05046157    4.89827752e+01
   407.5000 0.05052356    4.92575844e+01
   408.0000 0.05058555    4.95533984e+01
   408.5000 0.05064754    4.98706697e+01
   409.0000 0.05070954    5.02099026e+01
   409.5000 0.05077153    5.05716548e+01
   410.0000 0.05083352    5.09565402e+01
   410.5000 0.05089551    5.13652317e+01
   411.0000 0.05095750    5.17984638e+01
   411.5000 0.05101950    5.22570362e+01
   412.0000 0.05108149    5.27418177e+01
   412.5000 0.05114348    5.32537500e+01
   413.0000 0.05120547    5.37938520e+01
   413.5000 0.05126746    5.43632246e+01
   414.0000 0.05132946    5.49630557e+01
   414.5000 0.05139145    5.55946249e+01
   415.0000 0.05145344    5.62593084e+01
   415.5000 0.05151543    5.69585837e+01
   416.0000 0.05157742    5.76940332e+01
   416.5000 0.05163942    5.84673471e+01
   417.0000 0.05170141    5.92803256e+01
   417.5000 0.05176340    6.01348804e+01
   418.0000 0.05182539    6.10330383e+01
   418.5000 0.05188739    6.19769500e+01
   419.0000 0.05194938    6.29689090e+01
   419.5000 0.05201137    6.40113859e+01
   420.0000 0.05207336    6.51070791e+01
   420.5000 0.05213535    6.62589728e+01
   421.0000 0.05219735    6.74703922e+01
   421.5000 0.05225934    6.87450376e+01
   422.0000 0.05232133    7.00869947e+01
   422.5000 0.05238332    7.15007289e+01
   423.0000 0.05244531    7.29910773e+01
   423.5000 0.05250731    7.45632548e+01
   424.0000 0.05256930    7.62228784e+01
   424.5000 0.05263129    7.79760098e+01
   425.0000 0.05269328    7.98292107e+01
   425.5000 0.05275527    8.17896090e+01
   426.0000 0.05281727    8.38649713e+01
   426.5000 0.05287926    8.60637831e+01
   427.0000 0.05294125    8.83953357e+01
   427.5000 0.05300324    9.08698228e+01
   428.0000 0.05306523    9.34984477e+01
   428.5000 0.05312723    9.62935443e+01
   429.0000 0.05318922    9.92687137e+01
   429.5000 0.05325121    1.02438978e+02
   430.0000 0.05331320    1.05820960e+02
   430.5000 0.05337520    1.09433082e+02
   431.0000 0.05343719    1.13295798e+02
   431.5000 0.05349918    1.17431862e+02
   432.0000 0.05356117    1.21866633e+02
   432.5000 0.05362316    1.26628430e+02
   433.0000 0.05368516    1.31748938e+02
   433.5000 0.05374715    1.37263684e+02
   434.0000 0.05380914    1.43212589e+02
   434.5000 0.05387113    1.49640603e+02
   435.0000 0.05393312    1.56598451e+02
   435.5000 0.05399512    1.64143505e+02
   436.0000 0.05405711    1.72340796e+02
   436.5000 0.05411910    1.81264204e+02
   437.0000 0.05418109    1.90997843e+02
   437.5000 0.05424308    2.01637691e+02
   438.0000 0.05430508    2.13293491e+02
   438.5000 0.05436707    2.26090971e+02
   439.0000 0.05442906    2.40174432e+02
   439.5000 0.05449105    2.55709751e+02
   440.0000 0.05455305    2.72887836e+02
   440.5000 0.05461504    2.91928570e+02
   441.0000 0.05467703    3.13085237e+02
   441.5000 0.05473902    3.36649392e+02
   442.0000 0.05480101    3.62956011e+02
   442.5000 0.05486301    3.92388634e+02
   443.0000 0.05492500    4.25383950e+02
   443.5000 0.05498699    4.62434834e+02
   444.0000 0.05504898    5.04090246e+02
   444.5000 0.05511097    5.50949354e+02
   445.0000 0.05517297    6.03645793e+02
   445.5000 0.05523496    6.62815905e+02
   446.0000 0.05529695    7.29042209e+02
   446.5000 0.05535894    8.02760641e+02
   447.0000 0.05542093    8.84118289e+02
   447.5000 0.05548293    9.72769927e+02
   448.0000 0.05554492    1.06761092e+03
   448.5000 0.05560691    1.16646754e+03
   449.0000 0.05566890    1.26580894e+03
   449.5000 0.05573090    1.36060509e+03
   450.0000 0.05579289    1.44450636e+03
   450.5000 0.05585488    1.51050708e+03
   451.0000 0.05591687    1.55211321e+03
   451.5000 0.05597886    1.56476456e+03
   452.0000 0.05604086    1.54700628e+03
   452.5000 0.05610285    1.50089051e+03
   453.0000 0.05616484    1.43141372e+03
   453.5000 0.05622683    1.34525997e+03
   454.0000 0.05628882    1.24939213e+03
   454.5000 0.05635082    1.14996284e+03
   455.0000 0.05641281    1.05174283e+03
   455.5000 0.05647480    9.58010839e+02
   456.0000 0.05653679    8.70732813e+02
   456.5000 0.05659878    7.90860703e+02
   457.0000 0.05666078    7.18637691e+02
   457.5000 0.05672277    6.53854558e+02
   458.0000 0.05678476    5.96041695e+02
   458.5000 0.05684675    5.44601693e+02
   459.0000 0.05690874    4.98894943e+02
   459.5000 0.05697074    4.58291290e+02
   460.0000 0.05703273    4.22198704e+02
   460.5000 0.05709472    3.90077111e+02
   461.0000 0.05715671    3.61443133e+02
   461.5000 0.05721871    3.35869511e+02
   462.0000 0.05728070    3.12981684e+02
   462.5000 0.05734269    2.92453007e+02
   463.0000 0.05740468    2.73999527e+02
   463.5000 0.05746667    2.57374824e+02
   464.0000 0.05752867    2.42365193e+02
   464.5000 0.05759066    2.28785279e+02
   465.0000 0.05765265    2.16474215e+02
   465.5000 0.05771464    2.05292251e+02
   466.0000 0.05777663    1.95117834e+02
   466.5000 0.05783863    1.85845099e+02
   467.0000 0.05790062    1.77381724e+02
   467.5000 0.05796261    1.69647101e+02
   468.0000 0.05802460    1.62570773e+02
   468.5000 0.05808659    1.56091112e+02
   469.0000 0.05814859    1.50154194e+02
   469.5000 0.05821058    1.44712850e+02
   470.0000 0.05827257    1.39725860e+02
   470.5000 0.05833456    1.35157277e+02
   471.0000 0.05839656    1.30975866e+02
   471.5000 0.05845855    1.27154630e+02
   472.0000 0.05852054    1.23670428e+02
   472.5000 0.05858253    1.20503670e+02
   473.0000 0.05864452    1.17638079e+02
   473.5000 0.05870652    1.15060513e+02
   474.0000 0.05876851    1.12760853e+02
   474.5000 0.05883050    1.10731944e+02
   475.0000 0.05889249    1.08969586e+02
   475.5000 0.05895448    1.07472579e+02
   476.0000 0.05901648    1.06242811e+02
   476.5000 0.05907847    1.05285377e+02
   477.0000 0.05914046    1.04608723e+02
   477.5000 0.05920245    1.04224777e+02
   478.0000 0.05926444    1.04149025e+02
   478.5000 0.05932644    1.04400463e+02
   479.0000 0.05938843    1.05001283e+02
   479.5000 0.05945042    1.05976130e+02
   480.0000 0.05951241    1.07350623e+02
   480.5000 0.05957441    1.09148750e+02
   481.0000 0.05963640    1.11388593e+02
   481.5000 0.05969839    1.14075735e+02
   482.0000 0.05976038    1.17193739e+02
   482.5000 0.05982237    1.20691469e+02
   483.0000 0.05988437    1.24468010e+02
   483.5000 0.05994636    1.28357949e+02
   484.0000 0.06000835    1.32122608e+02
   484.5000 0.06007034    1.35455597e+02
   485.0000 0.06013233    1.38011162e+02
   485.5000 0.06019433    1.39458002e+02
   486.0000 0.06025632    1.39548692e+02
   486.5000 0.06031831    1.38181384e+02
   487.0000 0.06038030    1.35427153e+02
   487.5000 0.06044229    1.31509816e+02
   488.0000 0.06050429    1.26748011e+02
   488.5000 0.06056628    1.21485148e+02
   489.0000 0.06062827    1.16032065e+02
   489.5000 0.06069026    1.10634554e+02
   490.0000 0.06075225    1.05464679e+02
   490.5000 0.06081425    1.00627854e+02
   491.0000 0.06087624    9.61770508e+01
   491.5000 0.06093823    9.21280308e+01
   492.0000 0.06100022    8.84724597e+01
   492.5000 0.06106222    8.51878876e+01
   493.0000 0.06112421    8.22447240e+01
   493.5000 0.06118620    7.96107888e+01
   494.0000 0.06124819    7.72540895e+01
   494.5000 0.06131018    7.51443874e+01
   495.0000 0.06137218    7.32539742e+01
   495.5000 0.06143417    7.15579625e+01
   496.0000 0.06149616    7.00342882e+01
   496.5000 0.06155815    6.86635571e+01
   497.0000 0.06162014    6.74288142e+01
   497.5000 0.06168214    6.63152860e+01
   498.0000 0.06174413    6.53101232e+01
   498.5000 0.06180612    6.44021576e+01
   499.0000 0.06186811    6.35816822e+01
   499.5000 0.06193010    6.28402549e+01
   500.0000 0.06199210    6.21705274e+01
   500.5000 0.06205409    6.15660961e+01
   501.0000 0.06211608    6.10213745e+01
   501.5000 0.06217807    6.05314830e+01
   502.0000 0.06224007    6.00921553e+01
   502.5000 0.06230206    5.96996580e+01
   503.0000 0.06236405    5.93507225e+01
   503.5000 0.06242604    5.90424864e+01
   504.0000 0.06248803    5.87724442e+01
   504.5000 0.06255003    5.85384047e+01
   505.0000 0.06261202    5.83384550e+01
   505.5000 0.06267401    5.81709300e+01
   506.0000 0.06273600    5.80343859e+01
   506.5000 0.06279799    5.79275781e+01
   507.0000 0.06285999    5.78494424e+01
   507.5000 0.06292198    5.77990792e+01
   508.0000 0.06298397    5.77757398e+01
   508.5000 0.06304596    5.77788156e+01
   509.0000 0.06310795    5.78078287e+01
   509.5000 0.06316995    5.78624245e+01
   510.0000 0.06323194    5.79423661e+01
   510.5000 0.06329393    5.80475298e+01
   511.0000 0.06335592    5.81779019e+01
   511.5000 0.06341792    5.83335772e+01
   512.0000 0.06347991    5.85147582e+01
   512.5000 0.06354190    5.87217561e+01
   513.0000 0.06360389    5.89549923e+01
   513.5000 0.06366588    5.92150014e+01
   514.0000 0.06372788    5.95024357e+01
   514.5000 0.06378987    5.98180706e+01
   515.0000 0.06385186    6.01628115e+01
   515.5000 0.06391385    6.05377025e+01
   516.0000 0.06397584    6.09439360e+01
   516.5000 0.06403784    6.13828655e+01
   517.0000 0.06409983    6.18560185e+01
   517.5000 0.06416182    6.23651139e+01
   518.0000 0.06422381    6.29120803e+01
   518.5000 0.06428580    6.34990779e+01
   519.0000 0.06434780    6.41285246e+01
   519.5000 0.06440979    6.48031247e+01
   520.0000 0.06447178    6.55259036e+01
   520.5000 0.06453377    6.63002467e+01
   521.0000 0.06459576    6.71299457e+01
   521.5000 0.06465776    6.80192510e+01
   522.0000 0.06471975    6.89729338e+01
   522.5000 0.06478174    6.99963575e+01
   523.0000 0.06484373    7.10955604e+01
   523.5000 0.06490573    7.22773531e+01
   524.0000 0.06496772    7.35494304e+01
   524.5000 0.06502971    7.49205020e+01
   525.0000 0.06509170    7.64004441e+01
   525.5000 0.06515369    7.80004734e+01
   526.0000 0.06521569    7.97333486e+01
   526.5000 0.06527768    8.16135984e+01
   527.0000 0.06533967    8.36577780e+01
   527.5000 0.06540166    8.58847517e+01
   528.0000 0.06546365    8.83159941e+01
   528.5000 0.06552565    9.09758942e+01
   529.0000 0.06558764    9.38920346e+01
   529.5000 0.06564963    9.70953941e+01
   530.0000 0.06571162    1.00620391e+02
   530.5000 0.06577361    1.04504629e+02
   531.0000 0.06583561    1.08788149e+02
   531.5000 0.06589760    1.13511866e+02
   532.0000 0.06595959    1.18714775e+02
   532.5000 0.06602158    1.24429381e+02
   533.0000 0.06608358    1.30674744e+02
   533.5000 0.06614557    1.37446672e+02
   534.0000 0.06620756    1.44705187e+02
   534.5000 0.06626955    1.52360656e+02
   535.0000 0.06633154    1.60262243e+02
   535.5000 0.06639354    1.68195147e+02
   536.0000 0.06645553    1.75894931e+02
   536.5000 0.06651752    1.83085295e+02
   537.0000 0.06657951    1.89537293e+02
   537.5000 0.06664150    1.95134903e+02
   538.0000 0.06670350    1.99922176e+02
   538.5000 0.06676549    2.04110831e+02
   539.0000 0.06682748    2.08045187e+02
   539.5000 0.06688947    2.12141526e+02
   540.0000 0.06695146    2.16827171e+02
   540.5000 0.06701346    2.22497690e+02
   541.0000 0.06707545    2.29497346e+02
   541.5000 0.06713744    2.38117604e+02
   542.0000 0.06719943    2.48604685e+02
   542.5000 0.06726143    2.61167975e+02
   543.0000 0.06732342    2.75983413e+02
   543.5000 0.06738541    2.93187905e+02
   544.0000 0.06744740    3.12861490e+02
   544.5000 0.06750939    3.34993829e+02
   545.0000 0.06757139    3.59431467e+02
   545.5000 0.06763338    3.85804400e+02
   546.0000 0.06769537    4.13437406e+02
   546.5000 0.06775736    4.41265444e+02
   547.0000 0.06781935    4.67791464e+02
   547.5000 0.06788135    4.91140424e+02
   548.0000 0.06794334    5.09257682e+02
   548.5000 0.06800533    5.20255404e+02
   549.0000 0.06806732    5.22829528e+02
   549.5000 0.06812931    5.16596271e+02
   550.0000 0.06819131    5.02197715e+02
   550.5000 0.06825330    4.81125206e+02
   551.0000 0.06831529    4.55345411e+02
   551.5000 0.06837728    4.26889168e+02
   552.0000 0.06843927    3.97538693e+02
   552.5000 0.06850127    3.68667090e+02
   553.0000 0.06856326    3.41211311e+02
   553.5000 0.06862525    3.15727368e+02
   554.0000 0.06868724    2.92478681e+02
   554.5000 0.06874924    2.71525171e+02
   555.0000 0.06881123    2.52797589e+02
   555.5000 0.06887322    2.36152938e+02
   556.0000 0.06893521    2.21412596e+02
   556.5000 0.06899720    2.08386843e+02
   557.0000 0.06905920    1.96889598e+02
   557.5000 0.06912119    1.86746547e+02
   558.0000 0.06918318    1.77799016e+02
   558.5000 0.06924517    1.69905238e+02
   559.0000 0.06930716    1.62940112e+02
   559.5000 0.06936916    1.56794158e+02
   560.0000 0.06943115    1.51372079e+02
   560.5000 0.06949314    1.46591223e+02
   561.0000 0.06955513    1.42380061e+02
   561.5000 0.06961712    1.38676769e+02
   562.0000 0.06967912    1.35427951e+02
   562.5000 0.06974111    1.32587514e+02
   563.0000 0.06980310    1.30115673e+02
   563.5000 0.06986509    1.27978114e+02
   564.0000 0.06992709    1.26145255e+02
   564.5000 0.06998908    1.24591629e+02
   565.0000 0.07005107    1.23295355e+02
   565.5000 0.07011306    1.22237689e+02
   566.0000 0.07017505    1.21402647e+02
   566.5000 0.07023705    1.20776685e+02
   567.0000 0.07029904    1.20348434e+02
   567.5000 0.07036103    1.20108478e+02
   568.0000 0.07042302    1.20049166e+02
   568.5000 0.07048501    1.20164466e+02
   569.0000 0.07054701    1.20449843e+02
   569.5000 0.07060900    1.20902163e+02
   570.0000 0.07067099    1.21519626e+02
   570.5000 0.07073298    1.22301710e+02
   571.0000 0.07079497    1.23249153e+02
   571.5000 0.07085697    1.24363933e+02
   572.0000 0.07091896    1.25649286e+02
   572.5000 0.07098095    1.27109731e+02
   573.0000 0.07104294    1.28751121e+02
   573.5000 0.07110494    1.30580707e+02
   574.0000 0.07116693    1.32607236e+02
   574.5000 0.07122892    1.34841056e+02
   575.0000 0.07129091    1.37294266e+02
   575.5000 0.07135290    1.39980877e+02
   576.0000 0.07141490    1.42917022e+02
   576.5000 0.07147689    1.46121190e+02
   577.0000 0.07153888    1.49614516e+02
   577.5000 0.07160087    1.53421112e+02
   578.0000 0.07166286    1.57568464e+02
   578.5000 0.07172486    1.62087891e+02
   579.0000 0.07178685    1.67015089e+02
   579.5000 0.07184884    1.72390770e+02
   580.0000 0.07191083    1.78261407e+02
   580.5000 0.07197282    1.84680114e+02
   581.0000 0.07203482    1.91707674e+02
   581.5000 0.07209681    1.99413748e+02
   582.0000 0.07215880    2.07878286e+02
   582.5000 0.07222079    2.17193180e+02
   583.0000 0.07228278    2.27464182e+02
   583.5000 0.07234478    2.38813124e+02
   584.0000 0.07240677    2.51380460e+02
   584.5000 0.07246876    2.65328145e+02
   585.0000 0.07253075    2.80842824e+02
   585.5000 0.07259275    2.98139256e+02
   586.0000 0.07265474    3.17463810e+02
   586.5000 0.07271673    3.39097716e+02
   587.0000 0.07277872    3.63359486e+02
   587.5000 0.07284071    3.90605581e+02
   588.0000 0.07290271    4.21227741e+02
   588.5000 0.07296470    4.55644585e+02
   589.0000 0.07302669    4.94283812e+02
   589.5000 0.07308868    5.37549734e+02
   590.0000 0.07315067    5.85769069e+02
   590.5000 0.07321267    6.39106347e+02
   591.0000 0.07327466    6.97440455e+02
   591.5000 0.07333665    7.60198110e+02
   592.0000 0.07339864    8.26152553e+02
   592.5000 0.07346063    8.93220698e+02
   593.0000 0.07352263    9.58329735e+02
   593.5000 0.07358462    1.01746311e+03
   594.0000 0.07364661    1.06600396e+03
   594.5000 0.07370860    1.09942663e+03
   595.0000 0.07377060    1.11422610e+03
   595.5000 0.07383259    1.10878675e+03
   596.0000 0.07389458    1.08382299e+03
   596.5000 0.07395657    1.04218159e+03
   597.0000 0.07401856    9.88101618e+02
   597.5000 0.07408056    9.26265178e+02
   598.0000 0.07414255    8.60987434e+02
   598.5000 0.07420454    7.95734619e+02
   599.0000 0.07426653    7.32973005e+02
   599.5000 0.07432852    6.74246152e+02
   600.0000 0.07439052    6.20361174e+02
   600.5000 0.07445251    5.71596488e+02
   601.0000 0.07451450    5.27884149e+02
   601.5000 0.07457649    4.88950287e+02
   602.0000 0.07463848    4.54414158e+02
   602.5000 0.07470048    4.23853275e+02
   603.0000 0.07476247    3.96843526e+02
   603.5000 0.07482446    3.72982036e+02
   604.0000 0.07488645    3.51898769e+02
   604.5000 0.07494845    3.33261112e+02
   605.0000 0.07501044    3.16774303e+02
   605.5000 0.07507243    3.02179564e+02
   606.0000 0.07513442    2.89251092e+02
   606.5000 0.07519641    2.77792616e+02
   607.0000 0.07525841    2.67633912e+02
   607.5000 0.07532040    2.58627518e+02
   608.0000 0.07538239    2.50645726e+02
   608.5000 0.07544438    2.43577906e+02
   609.0000 0.07550637    2.37328170e+02
   609.5000 0.07556837    2.31813331e+02
   610.0000 0.07563036    2.26961159e+02
   610.5000 0.07569235    2.22708876e+02
   611.0000 0.07575434    2.19001871e+02
   611.5000 0.07581633    2.15792613e+02
   612.0000 0.07587833    2.13039710e+02
   612.5000 0.07594032    2.10707117e+02
   613.0000 0.07600231    2.08763460e+02
   613.5000 0.07606430    2.07181461e+02
   614.0000 0.07612629    2.05937441e+02
   614.5000 0.07618829    2.05010909e+02
   615.0000 0.07625028    2.04384201e+02
   615.5000 0.07631227    2.04042181e+02
   616.0000 0.07637426    2.03971981e+02
   616.5000 0.07643626    2.04162786e+02
   617.0000 0.07649825    2.04605652e+02
   617.5000 0.07656024    2.05293348e+02
   618.0000 0.07662223    2.06220238e+02
   618.5000 0.07668422    2.07382168e+02
   619.0000 0.07674622    2.08776392e+02
   619.5000 0.07680821    2.10401501e+02
   620.0000 0.07687020    2.12257386e+02
   620.5000 0.07693219    2.14345201e+02
   621.0000 0.07699418    2.16667352e+02
   621.5000 0.07705618    2.19227502e+02
   622.0000 0.07711817    2.22030582e+02
   622.5000 0.07718016    2.25082828e+02
   623.0000 0.07724215    2.28391827e+02
   623.5000 0.07730414    2.31966582e+02
   624.0000 0.07736614    2.35817594e+02
   624.5000 0.07742813    2.39956967e+02
   625.0000 0.07749012    2.44398524e+02
   625.5000 0.07755211    2.49157964e+02
   626.0000 0.07761411    2.54253025e+02
   626.5000 0.07767610    2.59703690e+02
   627.0000 0.07773809    2.65532418e+02
   627.5000 0.07780008    2.71764414e+02
   628.0000 0.07786207    2.78427932e+02
   628.5000 0.07792407    2.85554621e+02
   629.0000 0.07798606    2.93179910e+02
   629.5000 0.07804805    3.01343421e+02
   630.0000 0.07811004    3.10089411e+02
   630.5000 0.07817203    3.19467215e+02
   631.0000 0.07823403    3.29531639e+02
   631.5000 0.07829602    3.40343258e+02
   632.0000 0.07835801    3.51968484e+02
   632.5000 0.07842000    3.64479252e+02
   633.0000 0.07848199    3.77952078e+02
   633.5000 0.07854399    3.92466151e+02
   634.0000 0.07860598    4.08100072e+02
   634.5000 0.07866797    4.24926837e+02
   635.0000 0.07872996    4.43006913e+02
   635.5000 0.07879196    4.62379839e+02
   636.0000 0.07885395    4.83056040e+02
   636.5000 0.07891594    5.05012343e+02
   637.0000 0.07897793    5.28196580e+02
   637.5000 0.07903992    5.52546954e+02
   638.0000 0.07910192    5.78028516e+02
   638.5000 0.07916391    6.04681253e+02
   639.0000 0.07922590    6.32665317e+02
   639.5000 0.07928789    6.62285894e+02
   640.0000 0.07934988    6.93988082e+02
   640.5000 0.07941188    7.28326932e+02
   641.0000 0.07947387    7.65928984e+02
   641.5000 0.07953586    8.07462051e+02
   642.0000 0.07959785    8.53622188e+02
   642.5000 0.07965984    9.05137892e+02
   643.0000 0.07972184    9.62786578e+02
   643.5000 0.07978383    1.02741755e+03
   644.0000 0.07984582    1.09997705e+03
   644.5000 0.07990781    1.18153246e+03
   645.0000 0.07996980    1.27329368e+03
   645.5000 0.08003180    1.37662937e+03
   646.0000 0.08009379    1.49307440e+03
   646.5000 0.08015578    1.62432278e+03
   647.0000 0.08021777    1.77219605e+03
   647.5000 0.08027977    1.93857243e+03
   648.0000 0.08034176    2.12525458e+03
   648.5000 0.08040375    2.33374595e+03
   649.0000 0.08046574    2.56489837e+03
   649.5000 0.08052773    2.81839237e+03
   650.0000 0.08058973    3.09202718e+03
   650.5000 0.08065172    3.38084584e+03
   651.0000 0.08071371    3.67622252e+03
   651.5000 0.08077570    3.96519960e+03
   652.0000 0.08083769    4.23053981e+03
   652.5000 0.08089969    4.45202765e+03
   653.0000 0.08096168    4.60931489e+03
   653.5000 0.08102367    4.68594695e+03
   654.0000 0.08108566    4.67335406e+03
   654.5000 0.08114765    4.57316716e+03
   655.0000 0.08120965    4.39676456e+03
   655.5000 0.08127164    4.16227078e+03
   656.0000 0.08133363    3.89038213e+03
   656.5000 0.08139562    3.60061568e+03
   657.0000 0.08145762    3.30894380e+03
   657.5000 0.08151961    3.02693242e+03
   658.0000 0.08158160    2.76196940e+03
   658.5000 0.08164359    2.51804721e+03
   659.0000 0.08170558    2.29668592e+03
   659.5000 0.08176758    2.09776424e+03
   660.0000 0.08182957    1.92016974e+03
   660.5000 0.08189156    1.76226264e+03
   661.0000 0.08195355    1.62218381e+03
   661.5000 0.08201554    1.49804632e+03
   662.0000 0.08207754    1.38804603e+03
   662.5000 0.08213953    1.29051895e+03
   663.0000 0.08220152    1.20396517e+03
   663.5000 0.08226351    1.12705280e+03
   664.0000 0.08232550    1.05861085e+03
   664.5000 0.08238750    9.97616391e+02
   665.0000 0.08244949    9.43179417e+02
   665.5000 0.08251148    8.94527394e+02
   666.0000 0.08257347    8.50990501e+02
   666.5000 0.08263547    8.11988109e+02
   667.0000 0.08269746    7.77016714e+02
   667.5000 0.08275945    7.45639338e+02
   668.0000 0.08282144    7.17476315e+02
   668.5000 0.08288343    6.92197349e+02
   669.0000 0.08294543    6.69514696e+02
   669.5000 0.08300742    6.49177332e+02
   670.0000 0.08306941    6.30965967e+02
   670.5000 0.08313140    6.14688801e+02
   671.0000 0.08319339    6.00177891e+02
   671.5000 0.08325539    5.87286060e+02
   672.0000 0.08331738    5.75884254e+02
   672.5000 0.08337937    5.65859286e+02
   673.0000 0.08344136    5.57111905e+02
   673.5000 0.08350335    5.49555149e+02
   674.0000 0.08356535    5.43112927e+02
   674.5000 0.08362734    5.37718812e+02
   675.0000 0.08368933    5.33315004e+02
   675.5000 0.08375132    5.29851444e+02
   676.0000 0.08381331    5.27285051e+02
   676.5000 0.08387531    5.25579082e+02
   677.0000 0.08393730    5.24702578e+02
   677.5000 0.08399929    5.24629898e+02
   678.0000 0.08406128    5.25340329e+02
   678.5000 0.08412328    5.26817762e+02
   679.0000 0.08418527    5.29050427e+02
   679.5000 0.08424726    5.32030677e+02
   680.0000 0.08430925    5.35754827e+02
   680.5000 0.08437124    5.40223035e+02
   681.0000 0.08443324    5.45439227e+02
   681.5000 0.08449523    5.51411057e+02
   682.0000 0.08455722    5.58149911e+02
   682.5000 0.08461921    5.65670949e+02
   683.0000 0.08468120    5.73993182e+02
   683.5000 0.08474320    5.83139592e+02
   684.0000 0.08480519    5.93137287e+02
   684.5000 0.08486718    6.04017703e+02
   685.0000 0.08492917    6.15816848e+02
   685.5000 0.08499116    6.28575593e+02
   686.0000 0.08505316    6.42340022e+02
   686.5000 0.08511515    6.57161829e+02
   687.0000 0.08517714    6.73098790e+02
   687.5000 0.08523913    6.90215294e+02
   688.0000 0.08530113    7.08582967e+02
   688.5000 0.08536312    7.28281379e+02
   689.0000 0.08542511    7.49398849e+02
   689.5000 0.08548710    7.72033378e+02
   690.0000 0.08554909    7.96293704e+02
   690.5000 0.08561109    8.22300520e+02
   691.0000 0.08567308    8.50187858e+02
   691.5000 0.08573507    8.80104686e+02
   692.0000 0.08579706    9.12216731e+02
   692.5000 0.08585905    9.46708584e+02
   693.0000 0.08592105    9.83786118e+02
   693.5000 0.08598304    1.02367927e+03
   694.0000 0.08604503    1.06664528e+03
   694.5000 0.08610702    1.11297239e+03
   695.0000 0.08616901    1.16298418e+03
   695.5000 0.08623101    1.21704461e+03
   696.0000 0.08629300    1.27556381e+03
   696.5000 0.08635499    1.33900491e+03
   697.0000 0.08641698    1.40789199e+03
   697.5000 0.08647898    1.48281931e+03
   698.0000 0.08654097    1.56446222e+03
   698.5000 0.08660296    1.65358980e+03
   699.0000 0.08666495    1.75107975e+03
   699.5000 0.08672694    1.85793580e+03
   700.0000 0.08678894    1.97530800e+03
   700.5000 0.08685093    2.10451641e+03
   701.0000 0.08691292    2.24707855e+03
   701.5000 0.08697491    2.40474107e+03
   702.0000 0.08703690    2.57951587e+03
   702.5000 0.08709890    2.77372063e+03
   703.0000 0.08716089    2.99002339e+03
   703.5000 0.08722288    3.23148960e+03
   704.0000 0.08728487    3.50162897e+03
   704.5000 0.08734686    3.80443654e+03
   705.0000 0.08740886    4.14441891e+03
   705.5000 0.08747085    4.52658997e+03
   706.0000 0.08753284    4.95641170e+03
   706.5000 0.08759483    5.43964166e+03
   707.0000 0.08765682    5.98203070e+03
   707.5000 0.08771882    6.58879093e+03
   708.0000 0.08778081    7.26372947e+03
   708.5000 0.08784280    8.00792844e+03
   709.0000 0.08790479    8.81786839e+03
   709.5000 0.08796679    9.68298373e+03
   710.0000 0.08802878    1.05828624e+04
   710.5000 0.08809077    1.14847067e+04
   711.0000 0.08815276    1.23422193e+04
   711.5000 0.08821475    1.30975170e+04
   712.0000 0.08827675    1.36874840e+04
   712.5000 0.08833874    1.40545899e+04
   713.0000 0.08840073    1.41597149e+04
   713.5000 0.08846272    1.39923166e+04
   714.0000 0.08852471    1.35733844e+04
   714.5000 0.08858671    1.29497483e+04
   715.0000 0.08864870    1.21824660e+04
   715.5000 0.08871069    1.13342292e+04
   716.0000 0.08877268    1.04598879e+04
   716.5000 0.08883467    9.60166806e+03
   717.0000 0.08889667    8.78844905e+03
   717.5000 0.08895866    8.03751818e+03
   718.0000 0.08902065    7.35730413e+03
   718.5000 0.08908264    6.75011201e+03
   719.0000 0.08914464    6.21439644e+03
   719.5000 0.08920663    5.74645134e+03
   720.0000 0.08926862    5.34156753e+03
   720.5000 0.08933061    4.99476876e+03
   721.0000 0.08939260    4.70123757e+03
   721.5000 0.08945460    4.45651961e+03
   722.0000 0.08951659    4.25656692e+03
   722.5000 0.08957858    4.09765531e+03
   723.0000 0.08964057    3.97619118e+03
   723.5000 0.08970256    3.88841332e+03
   724.0000 0.08976456    3.82999820e+03
   724.5000 0.08982655    3.79560221e+03
   725.0000 0.08988854    3.77842709e+03
   725.5000 0.08995053    3.76997164e+03
   726.0000 0.09001252    3.76020271e+03
   726.5000 0.09007452    3.73836622e+03
   727.0000 0.09013651    3.69448035e+03
   727.5000 0.09019850    3.62119951e+03
   728.0000 0.09026049    3.51538840e+03
   728.5000 0.09032249    3.37870424e+03
   729.0000 0.09038448    3.21689572e+03
   729.5000 0.09044647    3.03814830e+03
   730.0000 0.09050846    2.85118910e+03
   730.5000 0.09057045    2.66379390e+03
   731.0000 0.09063245    2.48198011e+03
   731.5000 0.09069444    2.30982522e+03
   732.0000 0.09075643    2.14968446e+03
   732.5000 0.09081842    2.00257918e+03
   733.0000 0.09088041    1.86860042e+03
   733.5000 0.09094241    1.74725039e+03
   734.0000 0.09100440    1.63769920e+03
   734.5000 0.09106639    1.53896207e+03
   735.0000 0.09112838    1.45001360e+03
   735.5000 0.09119037    1.36985621e+03
   736.0000 0.09125237    1.29755765e+03
   736.5000 0.09131436    1.23226855e+03
   737.0000 0.09137635    1.17322768e+03
   737.5000 0.09143834    1.11976016e+03
   738.0000 0.09150033    1.07127194e+03
   738.5000 0.09156233    1.02724243e+03
   739.0000 0.09162432    9.87216752e+02
   739.5000 0.09168631    9.50798029e+02
   740.0000 0.09174830    9.17640321e+02
   740.5000 0.09181030    8.87442190e+02
   741.0000 0.09187229    8.59941021e+02
   741.5000 0.09193428    8.34908069e+02
   742.0000 0.09199627    8.12144173e+02
   742.5000 0.09205826    7.91476077e+02
   743.0000 0.09212026    7.72753285e+02
   743.5000 0.09218225    7.55845385e+02
   744.0000 0.09224424    7.40639791e+02
   744.5000 0.09230623    7.27039827e+02
   745.0000 0.09236822    7.14963134e+02
   745.5000 0.09243022    7.04340339e+02
   746.0000 0.09249221    6.95113960e+02
   746.5000 0.09255420    6.87237528e+02
   747.0000 0.09261619    6.80674884e+02
   747.5000 0.09267818    6.75399660e+02
   748.0000 0.09274018    6.71394901e+02
   748.5000 0.09280217    6.68652847e+02
   749.0000 0.09286416    6.67174849e+02
   749.5000 0.09292615    6.66971424e+02
   750.0000 0.09298815    6.68062451e+02
   750.5000 0.09305014    6.70477515e+02
   751.0000 0.09311213    6.74256390e+02
   751.5000 0.09317412    6.79449703e+02
   752.0000 0.09323611    6.86119763e+02
   752.5000 0.09329811    6.94341592e+02
   753.0000 0.09336010    7.04204184e+02
   753.5000 0.09342209    7.15812018e+02
   754.0000 0.09348408    7.29286862e+02
   754.5000 0.09354607    7.44769914e+02
   755.0000 0.09360807    7.62424348e+02
   755.5000 0.09367006    7.82438305e+02
   756.0000 0.09373205    8.05028431e+02
   756.5000 0.09379404    8.30444041e+02
   757.0000 0.09385603    8.58972014e+02
   757.5000 0.09391803    8.90942553e+02
   758.0000 0.09398002    9.26735934e+02
   758.5000 0.09404201    9.66790403e+02
   759.0000 0.09410400    1.01161139e+03
   759.5000 0.09416600    1.06178217e+03
   760.0000 0.09422799    1.11797618e+03
   760.5000 0.09428998    1.18097094e+03
   761.0000 0.09435197    1.25166367e+03
   761.5000 0.09441396    1.33108822e+03
   762.0000 0.09447596    1.42043276e+03
   762.5000 0.09453795    1.52105676e+03
   763.0000 0.09459994    1.63450496e+03
   763.5000 0.09466193    1.76251429e+03
   764.0000 0.09472392    1.90700692e+03
   764.5000 0.09478592    2.07005884e+03
   765.0000 0.09484791    2.25382787e+03
   765.5000 0.09490990    2.46041730e+03
   766.0000 0.09497189    2.69164250e+03
   766.5000 0.09503388    2.94865905e+03
   767.0000 0.09509588    3.23140832e+03
   767.5000 0.09515787    3.53784917e+03
   768.0000 0.09521986    3.86299241e+03
   768.5000 0.09528185    4.19785821e+03
   769.0000 0.09534384    4.52864889e+03
   769.5000 0.09540584    4.83663482e+03
   770.0000 0.09546783    5.09936322e+03
   770.5000 0.09552982    5.29360051e+03
   771.0000 0.09559181    5.39974634e+03
   771.5000 0.09565381    5.40648854e+03
   772.0000 0.09571580    5.31385340e+03
   772.5000 0.09577779    5.13323244e+03
   773.0000 0.09583978    4.88437321e+03
   773.5000 0.09590177    4.59073661e+03
   774.0000 0.09596377    4.27506826e+03
   774.5000 0.09602576    3.95642743e+03
   775.0000 0.09608775    3.64894746e+03
   775.5000 0.09614974    3.36192103e+03
   776.0000 0.09621173    3.10059732e+03
   776.5000 0.09627373    2.86718638e+03
   777.0000 0.09633572    2.66177077e+03
   777.5000 0.09639771    2.48299947e+03
   778.0000 0.09645970    2.32854873e+03
   778.5000 0.09652169    2.19539404e+03
   779.0000 0.09658369    2.07996830e+03
   779.5000 0.09664568    1.97829881e+03
   780.0000 0.09670767    1.88621617e+03
   780.5000 0.09676966    1.79969479e+03
   781.0000 0.09683166    1.71530650e+03
   781.5000 0.09689365    1.63066691e+03
   782.0000 0.09695564    1.54469750e+03
   782.5000 0.09701763    1.45757797e+03
   783.0000 0.09707962    1.37040638e+03
   783.5000 0.09714162    1.28471689e+03
   784.0000 0.09720361    1.20203672e+03
   784.5000 0.09726560    1.12359624e+03
   785.0000 0.09732759    1.05021074e+03
   785.5000 0.09738958    9.82289512e+02
   786.0000 0.09745158    9.19912163e+02
   786.5000 0.09751357    8.62924071e+02
   787.0000 0.09757556    8.11023830e+02
   787.5000 0.09763755    7.63831658e+02
   788.0000 0.09769954    7.20937659e+02
   788.5000 0.09776154    6.81933069e+02
   789.0000 0.09782353    6.46428822e+02
   789.5000 0.09788552    6.14065334e+02
   790.0000 0.09794751    5.84516620e+02
   790.5000 0.09800951    5.57490919e+02
   791.0000 0.09807150    5.32729353e+02
   791.5000 0.09813349    5.10003564e+02
   792.0000 0.09819548    4.89112926e+02
   792.5000 0.09825747    4.69881704e+02
   793.0000 0.09831947    4.52156337e+02
   793.5000 0.09838146    4.35802968e+02
   794.0000 0.09844345    4.20705237e+02
   794.5000 0.09850544    4.06762381e+02
   795.0000 0.09856743    3.93887581e+02
   795.5000 0.09862943    3.82006575e+02
   796.0000 0.09869142    3.71056466e+02
   796.5000 0.09875341    3.60984696e+02
   797.0000 0.09881540    3.51748115e+02
   797.5000 0.09887739    3.43312060e+02
   798.0000 0.09893939    3.35649318e+02
   798.5000 0.09900138    3.28738804e+02
   799.0000 0.09906337    3.22563680e+02
   799.5000 0.09912536    3.17108585e+02
   800.0000 0.09918736    3.12355525e+02
   800.5000 0.09924935    3.08277907e+02
   801.0000 0.09931134    3.04832301e+02
   801.5000 0.09937333    3.01947914e+02
   802.0000 0.09943532    2.99514710e+02
   802.5000 0.09949732    2.97372841e+02
   803.0000 0.09955931    2.95308327e+02
   803.5000 0.09962130    2.93061663e+02
   804.0000 0.09968329    2.90355031e+02
   804.5000 0.09974528    2.86937748e+02
   805.0000 0.09980728    2.82639193e+02
   805.5000 0.09986927    2.77409593e+02
   806.0000 0.09993126    2.71330221e+02
   806.5000 0.09999325    2.64588004e+02
   807.0000 0.10005524    2.57426584e+02
   807.5000 0.10011724    2.50094436e+02
   808.0000 0.10017923    2.42806525e+02
   808.5000 0.10024122    2.35725459e+02
   809.0000 0.10030321    2.28959144e+02
   809.5000 0.10036520    2.22568339e+02
   810.0000 0.10042720    2.16577981e+02
   810.5000 0.10048919    2.10988379e+02
   811.0000 0.10055118    2.05784437e+02
   811.5000 0.10061317    2.00942474e+02
   812.0000 0.10067517    1.96434889e+02
   812.5000 0.10073716    1.92233133e+02
   813.0000 0.10079915    1.88309479e+02
   813.5000 0.10086114    1.84637983e+02
   814.0000 0.10092313    1.81194928e+02
   814.5000 0.10098513    1.77958947e+02
   815.0000 0.10104712    1.74910970e+02
   815.5000 0.10110911    1.72034071e+02
   816.0000 0.10117110    1.69313269e+02
   816.5000 0.10123309    1.66735328e+02
   817.0000 0.10129509    1.64288544e+02
   817.5000 0.10135708    1.61962567e+02
   818.0000 0.10141907    1.59748221e+02
   818.5000 0.10148106    1.57637362e+02
   819.0000 0.10154305    1.55622738e+02
   819.5000 0.10160505    1.53697881e+02
   820.0000 0.10166704    1.51857006e+02
   820.5000 0.10172903    1.50094921e+02
   821.0000 0.10179102    1.48406963e+02
   821.5000 0.10185302    1.46788924e+02
   822.0000 0.10191501    1.45237008e+02
   822.5000 0.10197700    1.43747777e+02
   823.0000 0.10203899    1.42318112e+02
   823.5000 0.10210098    1.40945183e+02
   824.0000 0.10216298    1.39626414e+02
   824.5000 0.10222497    1.38359463e+02
   825.0000 0.10228696    1.37142194e+02
   825.5000 0.10234895    1.35972664e+02
   826.0000 0.10241094    1.34849105e+02
   826.5000 0.10247294    1.33769910e+02
   827.0000 0.10253493    1.32733620e+02
   827.5000 0.10259692    1.31738918e+02
   828.0000 0.10265891    1.30784619e+02
   828.5000 0.10272090    1.29869664e+02
   829.0000 0.10278290    1.28993115e+02
   829.5000 0.10284489    1.28154152e+02
   830.0000 0.10290688    1.27352071e+02
   830.5000 0.10296887    1.26586286e+02
   831.0000 0.10303087    1.25856324e+02
   831.5000 0.10309286    1.25161832e+02
   832.0000 0.10315485    1.24502575e+02
   832.5000 0.10321684    1.23878446e+02
   833.0000 0.10327883    1.23289460e+02
   833.5000 0.10334083    1.22735762e+02
   834.0000 0.10340282    1.22217623e+02
   834.5000 0.10346481    1.21735433e+02
   835.0000 0.10352680    1.21289679e+02
   835.5000 0.10358879    1.20880911e+02
   836.0000 0.10365079    1.20509675e+02
   836.5000 0.10371278    1.20176409e+02
   837.0000 0.10377477    1.19881286e+02
   837.5000 0.10383676    1.19623979e+02
   838.0000 0.10389875    1.19403373e+02
   838.5000 0.10396075    1.19217223e+02
   839.0000 0.10402274    1.19061852e+02
   839.5000 0.10408473    1.18932020e+02
   840.0000 0.10414672    1.18821170e+02
   840.5000 0.10420871    1.18722212e+02
   841.0000 0.10427071    1.18628844e+02
   841.5000 0.10433270    1.18537120e+02
   842.0000 0.10439469    1.18446680e+02
   842.5000 0.10445668    1.18361103e+02
   843.0000 0.10451868    1.18287207e+02
   843.5000 0.10458067    1.18233648e+02
   844.0000 0.10464266    1.18209400e+02
   844.5000 0.10470465    1.18222626e+02
   845.0000 0.10476664    1.18280117e+02
   845.5000 0.10482864    1.18387228e+02
   846.0000 0.10489063    1.18548108e+02
   846.5000 0.10495262    1.18766053e+02
   847.0000 0.10501461    1.19043864e+02
   847.5000 0.10507660    1.19384139e+02
   848.0000 0.10513860    1.19789516e+02
   848.5000 0.10520059    1.20262838e+02
   849.0000 0.10526258    1.20807287e+02
   849.5000 0.10532457    1.21426476e+02
   850.0000 0.10538656    1.22124531e+02
   850.5000 0.10544856    1.22906164e+02
   851.0000 0.10551055    1.23776734e+02
   851.5000 0.10557254    1.24742327e+02
   852.0000 0.10563453    1.25809835e+02
   852.5000 0.10569653    1.26987047e+02
   853.0000 0.10575852    1.28282756e+02
   853.5000 0.10582051    1.29706887e+02
   854.0000 0.10588250    1.31270634e+02
   854.5000 0.10594449    1.32986639e+02
   855.0000 0.10600649    1.34869182e+02
   855.5000 0.10606848    1.36934419e+02
   856.0000 0.10613047    1.39200648e+02
   856.5000 0.10619246    1.41688631e+02
   857.0000 0.10625445    1.44421965e+02
   857.5000 0.10631645    1.47427513e+02
   858.0000 0.10637844    1.50735923e+02
   858.5000 0.10644043    1.54382218e+02
   859.0000 0.10650242    1.58406504e+02
   859.5000 0.10656441    1.62854779e+02
   860.0000 0.10662641    1.67779890e+02
   860.5000 0.10668840    1.73242632e+02
   861.0000 0.10675039    1.79313014e+02
   861.5000 0.10681238    1.86071693e+02
   862.0000 0.10687438    1.93611573e+02
   862.5000 0.10693637    2.02039547e+02
   863.0000 0.10699836    2.11478290e+02
   863.5000 0.10706035    2.22067991e+02
   864.0000 0.10712234    2.33967743e+02
   864.5000 0.10718434    2.47356193e+02
   865.0000 0.10724633    2.62430720e+02
   865.5000 0.10730832    2.79404060e+02
   866.0000 0.10737031    2.98496673e+02
   866.5000 0.10743230    3.19922409e+02
   867.0000 0.10749430    3.43864090e+02
   867.5000 0.10755629    3.70434800e+02
   868.0000 0.10761828    3.99620439e+02
   868.5000 0.10768027    4.31200649e+02
   869.0000 0.10774226    4.64650364e+02
   869.5000 0.10780426    4.99035263e+02
   870.0000 0.10786625    5.32932217e+02
   870.5000 0.10792824    5.64426385e+02
   871.0000 0.10799023    5.91246172e+02
   871.5000 0.10805222    6.11073732e+02
   872.0000 0.10811422    6.21997062e+02
   872.5000 0.10817621    6.22972081e+02
   873.0000 0.10823820    6.14107517e+02
   873.5000 0.10830019    5.96638069e+02
   874.0000 0.10836219    5.72597448e+02
   874.5000 0.10842418    5.44340315e+02
   875.0000 0.10848617    5.14097361e+02
   875.5000 0.10854816    4.83681381e+02
   876.0000 0.10861015    4.54366022e+02
   876.5000 0.10867215    4.26895927e+02
   877.0000 0.10873414    4.01571709e+02
   877.5000 0.10879613    3.78366853e+02
   878.0000 0.10885812    3.57052451e+02
   878.5000 0.10892011    3.37316084e+02
   879.0000 0.10898211    3.18861760e+02
   879.5000 0.10904410    3.01476257e+02
   880.0000 0.10910609    2.85052438e+02
   880.5000 0.10916808    2.69573399e+02
   881.0000 0.10923007    2.55074241e+02
   881.5000 0.10929207    2.41601845e+02
   882.0000 0.10935406    2.29186404e+02
   882.5000 0.10941605    2.17828543e+02
   883.0000 0.10947804    2.07498775e+02
   883.5000 0.10954004    1.98143743e+02
   884.0000 0.10960203    1.89694607e+02
   884.5000 0.10966402    1.82074799e+02
   885.0000 0.10972601    1.75206004e+02
   885.5000 0.10978800    1.69012223e+02
   886.0000 0.10985000    1.63422209e+02
   886.5000 0.10991199    1.58370708e+02
   887.0000 0.10997398    1.53798890e+02
   887.5000 0.11003597    1.49654275e+02
   888.0000 0.11009796    1.45890369e+02
   888.5000 0.11015996    1.42466165e+02
   889.0000 0.11022195    1.39345582e+02
   889.5000 0.11028394    1.36496911e+02
   890.0000 0.11034593    1.33892288e+02
   890.5000 0.11040792    1.31507219e+02
   891.0000 0.11046992    1.29320148e+02
   891.5000 0.11053191    1.27312077e+02
   892.0000 0.11059390    1.25466239e+02
   892.5000 0.11065589    1.23767810e+02
   893.0000 0.11071789    1.22203659e+02
   893.5000 0.11077988    1.20762134e+02
   894.0000 0.11084187    1.19432875e+02
   894.5000 0.11090386    1.18206659e+02
   895.0000 0.11096585    1.17075258e+02
   895.5000 0.11102785    1.16031320e+02
   896.0000 0.11108984    1.15068268e+02
   896.5000 0.11115183    1.14180213e+02
   897.0000 0.11121382    1.13361871e+02
   897.5000 0.11127581    1.12608505e+02
   898.0000 0.11133781    1.11915857e+02
   898.5000 0.11139980    1.11280108e+02
   899.0000 0.11146179    1.10697829e+02
   899.5000 0.11152378    1.10165943e+02
   900.0000 0.11158577    1.09681694e+02
   900.5000 0.11164777    1.09242621e+02
   901.0000 0.11170976    1.08846530e+02
   901.5000 0.11177175    1.08491475e+02
   902.0000 0.11183374    1.08175740e+02
   902.5000 0.11189573    1.07897826e+02
   903.0000 0.11195773    1.07656438e+02
   903.5000 0.11201972    1.07450475e+02
   904.0000 0.11208171    1.07279024e+02
   904.5000 0.11214370    1.07141354e+02
   905.0000 0.11220570    1.07036915e+02
   905.5000 0.11226769    1.06965337e+02
   906.0000 0.11232968    1.06926432e+02
   906.5000 0.11239167    1.06920199e+02
   907.0000 0.11245366    1.06946830e+02
   907.5000 0.11251566    1.07006723e+02
   908.0000 0.11257765    1.07100492e+02
   908.5000 0.11263964    1.07228987e+02
   909.0000 0.11270163    1.07393313e+02
   909.5000 0.11276362    1.07594854e+02
   910.0000 0.11282562    1.07835311e+02
   910.5000 0.11288761    1.08116731e+02
   911.0000 0.11294960    1.08441555e+02
   911.5000 0.11301159    1.08812672e+02
   912.0000 0.11307358    1.09233479e+02
   912.5000 0.11313558    1.09707959e+02
   913.0000 0.11319757    1.10240760e+02
   913.5000 0.11325956    1.10837308e+02
   914.0000 0.11332155    1.11503914e+02
   914.5000 0.11338355    1.12247921e+02
   915.0000 0.11344554    1.13077854e+02
   915.5000 0.11350753    1.14003604e+02
   916.0000 0.11356952    1.15036616e+02
   916.5000 0.11363151    1.16190103e+02
   917.0000 0.11369351    1.17479251e+02
   917.5000 0.11375550    1.18921405e+02
   918.0000 0.11381749    1.20536196e+02
   918.5000 0.11387948    1.22345535e+02
   919.0000 0.11394147    1.24373381e+02
   919.5000 0.11400347    1.26645111e+02
   920.0000 0.11406546    1.29186252e+02
   920.5000 0.11412745    1.32020232e+02
   921.0000 0.11418944    1.35164692e+02
   921.5000 0.11425143    1.38625831e+02
   922.0000 0.11431343    1.42390308e+02
   922.5000 0.11437542    1.46414595e+02
   923.0000 0.11443741    1.50612590e+02
   923.5000 0.11449940    1.54844029e+02
   924.0000 0.11456140    1.58908640e+02
   924.5000 0.11462339    1.62553050e+02
   925.0000 0.11468538    1.65497009e+02
   925.5000 0.11474737    1.67479884e+02
   926.0000 0.11480936    1.68317644e+02
   926.5000 0.11487136    1.67950200e+02
   927.0000 0.11493335    1.66458189e+02
   927.5000 0.11499534    1.64041079e+02
   928.0000 0.11505733    1.60967136e+02
   928.5000 0.11511932    1.57516888e+02
   929.0000 0.11518132    1.53939150e+02
   929.5000 0.11524331    1.50427741e+02
   930.0000 0.11530530    1.47116768e+02
   930.5000 0.11536729    1.44087614e+02
   931.0000 0.11542928    1.41380768e+02
   931.5000 0.11549128    1.39007897e+02
   932.0000 0.11555327    1.36961872e+02
   932.5000 0.11561526    1.35224071e+02
   933.0000 0.11567725    1.33769124e+02
   933.5000 0.11573924    1.32567594e+02
   934.0000 0.11580124    1.31587220e+02
   934.5000 0.11586323    1.30793378e+02
   935.0000 0.11592522    1.30149480e+02
   935.5000 0.11598721    1.29618045e+02
   936.0000 0.11604921    1.29162950e+02
   936.5000 0.11611120    1.28752805e+02
   937.0000 0.11617319    1.28364590e+02
   937.5000 0.11623518    1.27986082e+02
   938.0000 0.11629717    1.27615901e+02
   938.5000 0.11635917    1.27261041e+02
   939.0000 0.11642116    1.26932972e+02
   939.5000 0.11648315    1.26643821e+02
   940.0000 0.11654514    1.26403706e+02
   940.5000 0.11660713    1.26219502e+02
   941.0000 0.11666913    1.26094755e+02
   941.5000 0.11673112    1.26030227e+02
   942.0000 0.11679311    1.26024668e+02
   942.5000 0.11685510    1.26075554e+02
   943.0000 0.11691709    1.26179671e+02
   943.5000 0.11697909    1.26333538e+02
   944.0000 0.11704108    1.26533687e+02
   944.5000 0.11710307    1.26776827e+02
   945.0000 0.11716506    1.27059935e+02
   945.5000 0.11722706    1.27380293e+02
   946.0000 0.11728905    1.27735500e+02
   946.5000 0.11735104    1.28123457e+02
   947.0000 0.11741303    1.28542353e+02
   947.5000 0.11747502    1.28990640e+02
   948.0000 0.11753702    1.29467011e+02
   948.5000 0.11759901    1.29970377e+02
   949.0000 0.11766100    1.30499849e+02
   949.5000 0.11772299    1.31054719e+02
   950.0000 0.11778498    1.31634448e+02
   950.5000 0.11784698    1.32238653e+02
   951.0000 0.11790897    1.32867102e+02
   951.5000 0.11797096    1.33519706e+02
   952.0000 0.11803295    1.34196516e+02
   952.5000 0.11809494    1.34897723e+02
   953.0000 0.11815694    1.35623659e+02
   953.5000 0.11821893    1.36374803e+02
   954.0000 0.11828092    1.37151778e+02
   954.5000 0.11834291    1.37955360e+02
   955.0000 0.11840491    1.38786473e+02
   955.5000 0.11846690    1.39646187e+02
   956.0000 0.11852889    1.40535697e+02
   956.5000 0.11859088    1.41456283e+02
   957.0000 0.11865287    1.42409244e+02
   957.5000 0.11871487    1.43395770e+02
   958.0000 0.11877686    1.44416754e+02
   958.5000 0.11883885    1.45472506e+02
   959.0000 0.11890084    1.46562349e+02
   959.5000 0.11896283    1.47684119e+02
   960.0000 0.11902483    1.48833608e+02
   960.5000 0.11908682    1.50004112e+02
   961.0000 0.11914881    1.51186335e+02
   961.5000 0.11921080    1.52368966e+02
   962.0000 0.11927279    1.53540173e+02
   962.5000 0.11933479    1.54689894e+02
   963.0000 0.11939678    1.55812325e+02
   963.5000 0.11945877    1.56907619e+02
   964.0000 0.11952076    1.57982024e+02
   964.5000 0.11958275    1.59046389e+02
   965.0000 0.11964475    1.60113734e+02
   965.5000 0.11970674    1.61196879e+02
   966.0000 0.11976873    1.62306806e+02
   966.5000 0.11983072    1.63451954e+02
   967.0000 0.11989272    1.64638235e+02
   967.5000 0.11995471    1.65869450e+02
   968.0000 0.12001670    1.67147846e+02
   968.5000 0.12007869    1.68474630e+02
   969.0000 0.12014068    1.69850395e+02
   969.5000 0.12020268    1.71275422e+02
   970.0000 0.12026467    1.72749888e+02
   970.5000 0.12032666    1.74274000e+02
   971.0000 0.12038865    1.75848072e+02
   971.5000 0.12045064    1.77472571e+02
   972.0000 0.12051264    1.79148142e+02
   972.5000 0.12057463    1.80875612e+02
   973.0000 0.12063662    1.82655999e+02
   973.5000 0.12069861    1.84490504e+02
   974.0000 0.12076060    1.86380513e+02
   974.5000 0.12082260    1.88327590e+02
   975.0000 0.12088459    1.90333481e+02
   975.5000 0.12094658    1.92400105e+02
   976.0000 0.12100857    1.94529565e+02
   976.5000 0.12107057    1.96724142e+02
   977.0000 0.12113256    1.98986302e+02
   977.5000 0.12119455    2.01318704e+02
   978.0000 0.12125654    2.03724204e+02
   978.5000 0.12131853    2.06205866e+02
   979.0000 0.12138053    2.08766971e+02
   979.5000 0.12144252    2.11411032e+02
   980.0000 0.12150451    2.14141803e+02
   980.5000 0.12156650    2.16963302e+02
   981.0000 0.12162849    2.19879824e+02
   981.5000 0.12169049    2.22895962e+02
   982.0000 0.12175248    2.26016629e+02
   982.5000 0.12181447    2.29247086e+02
   983.0000 0.12187646    2.32592966e+02
   983.5000 0.12193845    2.36060306e+02
   984.0000 0.12200045    2.39655583e+02
   984.5000 0.12206244    2.43385750e+02
   985.0000 0.12212443    2.47258280e+02
   985.5000 0.12218642    2.51281211e+02
   986.0000 0.12224842    2.55463203e+02
   986.5000 0.12231041    2.59813592e+02
   987.0000 0.12237240    2.64342460e+02
   987.5000 0.12243439    2.69060709e+02
   988.0000 0.12249638    2.73980140e+02
   988.5000 0.12255838    2.79113551e+02
   989.0000 0.12262037    2.84474842e+02
   989.5000 0.12268236    2.90079133e+02
   990.0000 0.12274435    2.95942897e+02
   990.5000 0.12280634    3.02084113e+02
   991.0000 0.12286834    3.08522438e+02
   991.5000 0.12293033    3.15279397e+02
   992.0000 0.12299232    3.22378599e+02
   992.5000 0.12305431    3.29845982e+02
   993.0000 0.12311630    3.37710072e+02
   993.5000 0.12317830    3.46002277e+02
   994.0000 0.12324029    3.54757191e+02
   994.5000 0.12330228    3.64012906e+02
   995.0000 0.12336427    3.73811309e+02
   995.5000 0.12342626    3.84198326e+02
   996.0000 0.12348826    3.95224052e+02
   996.5000 0.12355025    4.06942686e+02
   997.0000 0.12361224    4.19412130e+02
   997.5000 0.12367423    4.32693086e+02
   998.0000 0.12373623    4.46847446e+02
   998.5000 0.12379822    4.61935791e+02
   999.0000 0.12386021    4.78013952e+02
   999.5000 0.12392220    4.95128925e+02
  1000.0000 0.12398419    5.13315117e+02
  1000.5000 0.12404619    5.32592760e+02
  1001.0000 0.12410818    5.52971152e+02
  1001.5000 0.12417017    5.74459189e+02
  1002.0000 0.12423216    5.97083594e+02
  1002.5000 0.12429415    6.20911436e+02
  1003.0000 0.12435615    6.46069996e+02
  1003.5000 0.12441814    6.72757147e+02
  1004.0000 0.12448013    7.01240054e+02
  1004.5000 0.12454212    7.31845998e+02
  1005.0000 0.12460411    7.64951778e+02
  1005.5000 0.12466611    8.00976335e+02
  1006.0000 0.12472810    8.40377922e+02
  1006.5000 0.12479009    8.83655312e+02
  1007.0000 0.12485208    9.31352572e+02
  1007.5000 0.12491408    9.84067240e+02
  1008.0000 0.12497607    1.04246165e+03
  1008.5000 0.12503806    1.10727659e+03
  1009.0000 0.12510005    1.17934608e+03
  1009.5000 0.12516204    1.25961202e+03
  1010.0000 0.12522404    1.34913717e+03
  1010.5000 0.12528603    1.44911494e+03
  1011.0000 0.12534802    1.56087408e+03
  1011.5000 0.12541001    1.68587656e+03
  1012.0000 0.12547200    1.82570697e+03
  1012.5000 0.12553400    1.98205292e+03
  1013.0000 0.12559599    2.15667642e+03
  1013.5000 0.12565798    2.35137387e+03
  1014.0000 0.12571997    2.56791220e+03
  1014.5000 0.12578196    2.80790780e+03
  1015.0000 0.12584396    3.07258532e+03
  1015.5000 0.12590595    3.36233237e+03
  1016.0000 0.12596794    3.67597724e+03
  1016.5000 0.12602993    4.00977814e+03
  1017.0000 0.12609193    4.35623069e+03
  1017.5000 0.12615392    4.70297146e+03
  1018.0000 0.12621591    5.03226053e+03
  1018.5000 0.12627790    5.32168101e+03
  1019.0000 0.12633989    5.54660729e+03
  1019.5000 0.12640189    5.68445126e+03
  1020.0000 0.12646388    5.71972447e+03
  1020.5000 0.12652587    5.64808290e+03
  1021.0000 0.12658786    5.47755211e+03
  1021.5000 0.12664985    5.22634511e+03
  1022.0000 0.12671185    4.91832380e+03
  1022.5000 0.12677384    4.57804329e+03
  1023.0000 0.12683583    4.22700224e+03
  1023.5000 0.12689782    3.88173285e+03
  1024.0000 0.12695981    3.55349135e+03
  1024.5000 0.12702181    3.24892843e+03
  1025.0000 0.12708380    2.97114916e+03
  1025.5000 0.12714579    2.72077657e+03
  1026.0000 0.12720778    2.49683739e+03
  1026.5000 0.12726977    2.29742655e+03
  1027.0000 0.12733177    2.12017641e+03
  1027.5000 0.12739376    1.96257982e+03
  1028.0000 0.12745575    1.82220983e+03
  1028.5000 0.12751774    1.69686247e+03
  1029.0000 0.12757974    1.58463240e+03
  1029.5000 0.12764173    1.48392787e+03
  1030.0000 0.12770372    1.39343785e+03
  1030.5000 0.12776571    1.31207380e+03
  1031.0000 0.12782770    1.23890930e+03
  1031.5000 0.12788970    1.17313259e+03
  1032.0000 0.12795169    1.11401650e+03
  1032.5000 0.12801368    1.06090254e+03
  1033.0000 0.12807567    1.01319372e+03
  1033.5000 0.12813766    9.70351153e+02
  1034.0000 0.12819966    9.31891769e+02
  1034.5000 0.12826165    8.97385655e+02
  1035.0000 0.12832364    8.66452782e+02
  1035.5000 0.12838563    8.38759232e+02
  1036.0000 0.12844762    8.14013205e+02
  1036.5000 0.12850962    7.91961050e+02
  1037.0000 0.12857161    7.72383530e+02
  1037.5000 0.12863360    7.55092419e+02
  1038.0000 0.12869559    7.39927507e+02
  1038.5000 0.12875759    7.26754046e+02
  1039.0000 0.12881958    7.15460613e+02
  1039.5000 0.12888157    7.05957417e+02
  1040.0000 0.12894356    6.98174998e+02
  1040.5000 0.12900555    6.92063334e+02
  1041.0000 0.12906755    6.87591335e+02
  1041.5000 0.12912954    6.84746710e+02
  1042.0000 0.12919153    6.83536232e+02
  1042.5000 0.12925352    6.83986381e+02
  1043.0000 0.12931551    6.86144399e+02
  1043.5000 0.12937751    6.90079757e+02
  1044.0000 0.12943950    6.95886036e+02
  1044.5000 0.12950149    7.03683239e+02
  1045.0000 0.12956348    7.13620469e+02
  1045.5000 0.12962547    7.25878907e+02
  1046.0000 0.12968747    7.40674897e+02
  1046.5000 0.12974946    7.58262803e+02
  1047.0000 0.12981145    7.78937048e+02
  1047.5000 0.12987344    8.03032347e+02
  1048.0000 0.12993544    8.30920561e+02
  1048.5000 0.12999743    8.63001673e+02
  1049.0000 0.13005942    8.99685202e+02
  1049.5000 0.13012141    9.41356716e+02
  1050.0000 0.13018340    9.88322345e+02
  1050.5000 0.13024540    1.04072279e+03
  1051.0000 0.13030739    1.09840867e+03
  1051.5000 0.13036938    1.16077405e+03
  1052.0000 0.13043137    1.22655786e+03
  1052.5000 0.13049336    1.29364922e+03
  1053.0000 0.13055536    1.35896990e+03
  1053.5000 0.13061735    1.41854438e+03
  1054.0000 0.13067934    1.46786985e+03
  1054.5000 0.13074133    1.50262364e+03
  1055.0000 0.13080332    1.51958045e+03
  1055.5000 0.13086532    1.51743272e+03
  1056.0000 0.13092731    1.49716008e+03
  1056.5000 0.13098930    1.46176867e+03
  1057.0000 0.13105129    1.41552439e+03
  1057.5000 0.13111328    1.36301691e+03
  1058.0000 0.13117528    1.30838465e+03
  1058.5000 0.13123727    1.25486610e+03
  1059.0000 0.13129926    1.20466835e+03
  1059.5000 0.13136125    1.15905277e+03
  1060.0000 0.13142325    1.11853017e+03
  1060.5000 0.13148524    1.08308899e+03
  1061.0000 0.13154723    1.05241222e+03
  1061.5000 0.13160922    1.02605428e+03
  1062.0000 0.13167121    1.00355611e+03
  1062.5000 0.13173321    9.84486133e+02
  1063.0000 0.13179520    9.68415189e+02
  1063.5000 0.13185719    9.54855768e+02
  1064.0000 0.13191918    9.43208796e+02
  1064.5000 0.13198117    9.32757431e+02
  1065.0000 0.13204317    9.22729245e+02
  1065.5000 0.13210516    9.12419096e+02
  1066.0000 0.13216715    9.01332649e+02
  1066.5000 0.13222914    8.89291146e+02
  1067.0000 0.13229113    8.76449725e+02
  1067.5000 0.13235313    8.63223206e+02
  1068.0000 0.13241512    8.50157227e+02
  1068.5000 0.13247711    8.37799286e+02
  1069.0000 0.13253910    8.26608859e+02
  1069.5000 0.13260110    8.16917454e+02
  1070.0000 0.13266309    8.08928393e+02
  1070.5000 0.13272508    8.02738957e+02
  1071.0000 0.13278707    7.98370049e+02
  1071.5000 0.13284906    7.95794446e+02
  1072.0000 0.13291106    7.94959775e+02
  1072.5000 0.13297305    7.95805439e+02
  1073.0000 0.13303504    7.98274169e+02
  1073.5000 0.13309703    8.02319317e+02
  1074.0000 0.13315902    8.07909104e+02
  1074.5000 0.13322102    8.15028941e+02
  1075.0000 0.13328301    8.23682745e+02
  1075.5000 0.13334500    8.33893929e+02
  1076.0000 0.13340699    8.45706438e+02
  1076.5000 0.13346898    8.59186045e+02
  1077.0000 0.13353098    8.74421952e+02
  1077.5000 0.13359297    8.91528704e+02
  1078.0000 0.13365496    9.10648381e+02
  1078.5000 0.13371695    9.31952941e+02
  1079.0000 0.13377895    9.55646511e+02
  1079.5000 0.13384094    9.81967232e+02
  1080.0000 0.13390293    1.01118798e+03
  1080.5000 0.13396492    1.04361488e+03
  1081.0000 0.13402691    1.07958184e+03
  1081.5000 0.13408891    1.11943850e+03
  1082.0000 0.13415090    1.16352765e+03
  1082.5000 0.13421289    1.21214680e+03
  1083.0000 0.13427488    1.26548711e+03
  1083.5000 0.13433687    1.32354242e+03
  1084.0000 0.13439887    1.38598334e+03
  1084.5000 0.13446086    1.45199904e+03
  1085.0000 0.13452285    1.52012645e+03
  1085.5000 0.13458484    1.58811482e+03
  1086.0000 0.13464683    1.65290706e+03
  1086.5000 0.13470883    1.71083763e+03
  1087.0000 0.13477082    1.75811424e+03
  1087.5000 0.13483281    1.79154020e+03
  1088.0000 0.13489480    1.80927598e+03
  1088.5000 0.13495679    1.81133784e+03
  1089.0000 0.13501879    1.79960147e+03
  1089.5000 0.13508078    1.77730909e+03
  1090.0000 0.13514277    1.74830953e+03
  1090.5000 0.13520476    1.71633396e+03
  1091.0000 0.13526676    1.68451068e+03
  1091.5000 0.13532875    1.65516402e+03
  1092.0000 0.13539074    1.62983103e+03
  1092.5000 0.13545273    1.60939636e+03
  1093.0000 0.13551472    1.59426319e+03
  1093.5000 0.13557672    1.58451210e+03
  1094.0000 0.13563871    1.58002784e+03
  1094.5000 0.13570070    1.58059106e+03
  1095.0000 0.13576269    1.58594006e+03
  1095.5000 0.13582468    1.59580995e+03
  1096.0000 0.13588668    1.60995575e+03
  1096.5000 0.13594867    1.62816509e+03
  1097.0000 0.13601066    1.65026418e+03
  1097.5000 0.13607265    1.67611994e+03
  1098.0000 0.13613464    1.70563987e+03
  1098.5000 0.13619664    1.73877094e+03
  1099.0000 0.13625863    1.77549801e+03
  1099.5000 0.13632062    1.81584244e+03
  1100.0000 0.13638261    1.85986084e+03
  1100.5000 0.13644461    1.90764440e+03
  1101.0000 0.13650660    1.95931861e+03
  1101.5000 0.13656859    2.01504361e+03
  1102.0000 0.13663058    2.07501508e+03
  1102.5000 0.13669257    2.13946579e+03
  1103.0000 0.13675457    2.20866781e+03
  1103.5000 0.13681656    2.28293535e+03
  1104.0000 0.13687855    2.36262843e+03
  1104.5000 0.13694054    2.44815739e+03
  1105.0000 0.13700253    2.53998826e+03
  1105.5000 0.13706453    2.63864932e+03
  1106.0000 0.13712652    2.74473875e+03
  1106.5000 0.13718851    2.85893376e+03
  1107.0000 0.13725050    2.98200130e+03
  1107.5000 0.13731249    3.11481066e+03
  1108.0000 0.13737449    3.25834834e+03
  1108.5000 0.13743648    3.41373534e+03
  1109.0000 0.13749847    3.58224760e+03
  1109.5000 0.13756046    3.76533986e+03
  1110.0000 0.13762246    3.96467350e+03
  1110.5000 0.13768445    4.18214908e+03
  1111.0000 0.13774644    4.41994409e+03
  1111.5000 0.13780843    4.68055642e+03
  1112.0000 0.13787042    4.96685411e+03
  1112.5000 0.13793242    5.28213132e+03
  1113.0000 0.13799441    5.63017015e+03
  1113.5000 0.13805640    6.01530638e+03
  1114.0000 0.13811839    6.44249589e+03
  1114.5000 0.13818038    6.91737475e+03
  1115.0000 0.13824238    7.44630144e+03
  1115.5000 0.13830437    8.03636138e+03
  1116.0000 0.13836636    8.69530234e+03
  1116.5000 0.13842835    9.43135158e+03
  1117.0000 0.13849034    1.02528414e+04
  1117.5000 0.13855234    1.11675388e+04
  1118.0000 0.13861433    1.21815422e+04
  1118.5000 0.13867632    1.32975826e+04
  1119.0000 0.13873831    1.45125848e+04
  1119.5000 0.13880030    1.58144482e+04
  1120.0000 0.13886230    1.71782863e+04
  1120.5000 0.13892429    1.85628809e+04
  1121.0000 0.13898628    1.99088360e+04
  1121.5000 0.13904827    2.11405632e+04
  1122.0000 0.13911027    2.21741236e+04
  1122.5000 0.13917226    2.29312939e+04
  1123.0000 0.13923425    2.33569737e+04
  1123.5000 0.13929624    2.34338544e+04
  1124.0000 0.13935823    2.31879145e+04
  1124.5000 0.13942023    2.26821061e+04
  1125.0000 0.13948222    2.20013048e+04
  1125.5000 0.13954421    2.12350895e+04
  1126.0000 0.13960620    2.04642455e+04
  1126.5000 0.13966819    1.97535747e+04
  1127.0000 0.13973019    1.91504456e+04
  1127.5000 0.13979218    1.86869979e+04
  1128.0000 0.13985417    1.83839065e+04
  1128.5000 0.13991616    1.82542746e+04
  1129.0000 0.13997815    1.83069428e+04
  1129.5000 0.14004015    1.85489844e+04
  1130.0000 0.14010214    1.89874078e+04
  1130.5000 0.14016413    1.96301575e+04
  1131.0000 0.14022612    2.04864856e+04
  1131.5000 0.14028812    2.15666915e+04
  1132.0000 0.14035011    2.28811337e+04
  1132.5000 0.14041210    2.44383105e+04
  1133.0000 0.14047409    2.62417158e+04
  1133.5000 0.14053608    2.82851384e+04
  1134.0000 0.14059808    3.05461866e+04
  1134.5000 0.14066007    3.29782236e+04
  1135.0000 0.14072206    3.55017878e+04
  1135.5000 0.14078405    3.79980066e+04
  1136.0000 0.14084604    4.03081895e+04
  1136.5000 0.14090804    4.22445813e+04
  1137.0000 0.14097003    4.36153899e+04
  1137.5000 0.14103202    4.42614292e+04
  1138.0000 0.14109401    4.40937813e+04
  1138.5000 0.14115600    4.31172925e+04
  1139.0000 0.14121800    4.14288831e+04
  1139.5000 0.14127999    3.91914860e+04
  1140.0000 0.14134198    3.65956649e+04
  1140.5000 0.14140397    3.38239358e+04
  1141.0000 0.14146597    3.10274521e+04
  1141.5000 0.14152796    2.83168086e+04
  1142.0000 0.14158995    2.57634176e+04
  1142.5000 0.14165194    2.34064664e+04
  1143.0000 0.14171393    2.12614657e+04
  1143.5000 0.14177593    1.93280833e+04
  1144.0000 0.14183792    1.75963378e+04
  1144.5000 0.14189991    1.60510492e+04
  1145.0000 0.14196190    1.46748120e+04
  1145.5000 0.14202389    1.34498554e+04
  1146.0000 0.14208589    1.23591243e+04
  1146.5000 0.14214788    1.13868468e+04
  1147.0000 0.14220987    1.05187763e+04
  1147.5000 0.14227186    9.74224033e+03
  1148.0000 0.14233385    9.04607953e+03
  1148.5000 0.14239585    8.42053040e+03
  1149.0000 0.14245784    7.85708492e+03
  1149.5000 0.14251983    7.34834564e+03
  1150.0000 0.14258182    6.88788687e+03
  1150.5000 0.14264381    6.47012713e+03
  1151.0000 0.14270581    6.09021506e+03
  1151.5000 0.14276780    5.74392906e+03
  1152.0000 0.14282979    5.42758987e+03
  1152.5000 0.14289178    5.13798523e+03
  1153.0000 0.14295378    4.87230504e+03
  1153.5000 0.14301577    4.62808585e+03
  1154.0000 0.14307776    4.40316341e+03
  1154.5000 0.14313975    4.19563206e+03
  1155.0000 0.14320174    4.00381004e+03
  1155.5000 0.14326374    3.82620989e+03
  1156.0000 0.14332573    3.66151303e+03
  1156.5000 0.14338772    3.50854798e+03
  1157.0000 0.14344971    3.36627171e+03
  1157.5000 0.14351170    3.23375359e+03
  1158.0000 0.14357370    3.11016152e+03
  1158.5000 0.14363569    2.99474999e+03
  1159.0000 0.14369768    2.88684979e+03
  1159.5000 0.14375967    2.78585898e+03
  1160.0000 0.14382166    2.69123520e+03
  1160.5000 0.14388366    2.60248886e+03
  1161.0000 0.14394565    2.51917723e+03
  1161.5000 0.14400764    2.44089931e+03
  1162.0000 0.14406963    2.36729134e+03
  1162.5000 0.14413163    2.29802276e+03
  1163.0000 0.14419362    2.23279284e+03
  1163.5000 0.14425561    2.17132752e+03
  1164.0000 0.14431760    2.11337678e+03
  1164.5000 0.14437959    2.05871222e+03
  1165.0000 0.14444159    2.00712492e+03
  1165.5000 0.14450358    1.95842364e+03
  1166.0000 0.14456557    1.91243310e+03
  1166.5000 0.14462756    1.86899250e+03
  1167.0000 0.14468955    1.82795424e+03
  1167.5000 0.14475155    1.78918272e+03
  1168.0000 0.14481354    1.75255327e+03
  1168.5000 0.14487553    1.71795129e+03
  1169.0000 0.14493752    1.68527131e+03
  1169.5000 0.14499951    1.65441633e+03
  1170.0000 0.14506151    1.62529710e+03
  1170.5000 0.14512350    1.59783153e+03
  1171.0000 0.14518549    1.57194415e+03
  1171.5000 0.14524748    1.54756564e+03
  1172.0000 0.14530948    1.52463241e+03
  1172.5000 0.14537147    1.50308617e+03
  1173.0000 0.14543346    1.48287363e+03
  1173.5000 0.14549545    1.46394621e+03
  1174.0000 0.14555744    1.44625971e+03
  1174.5000 0.14561944    1.42977416e+03
  1175.0000 0.14568143    1.41445354e+03
  1175.5000 0.14574342    1.40026564e+03
  1176.0000 0.14580541    1.38718193e+03
  1176.5000 0.14586740    1.37517742e+03
  1177.0000 0.14592940    1.36423054e+03
  1177.5000 0.14599139    1.35432312e+03
  1178.0000 0.14605338    1.34544031e+03
  1178.5000 0.14611537    1.33757055e+03
  1179.0000 0.14617736    1.33070561e+03
  1179.5000 0.14623936    1.32484056e+03
  1180.0000 0.14630135    1.31997385e+03
  1180.5000 0.14636334    1.31610735e+03
  1181.0000 0.14642533    1.31324640e+03
  1181.5000 0.14648732    1.31139992e+03
  1182.0000 0.14654932    1.31058041e+03
  1182.5000 0.14661131    1.31080400e+03
  1183.0000 0.14667330    1.31209034e+03
  1183.5000 0.14673529    1.31446247e+03
  1184.0000 0.14679729    1.31794640e+03
  1184.5000 0.14685928    1.32257059e+03
  1185.0000 0.14692127    1.32836512e+03
  1185.5000 0.14698326    1.33536085e+03
  1186.0000 0.14704525    1.34358872e+03
  1186.5000 0.14710725    1.35307984e+03
  1187.0000 0.14716924    1.36386707e+03
  1187.5000 0.14723123    1.37598875e+03
  1188.0000 0.14729322    1.38949459e+03
  1188.5000 0.14735521    1.40445249e+03
  1189.0000 0.14741721    1.42095412e+03
  1189.5000 0.14747920    1.43911739e+03
  1190.0000 0.14754119    1.45908507e+03
  1190.5000 0.14760318    1.48102105e+03
  1191.0000 0.14766517    1.50510649e+03
  1191.5000 0.14772717    1.53153781e+03
  1192.0000 0.14778916    1.56052712e+03
  1192.5000 0.14785115    1.59230490e+03
  1193.0000 0.14791314    1.62712422e+03
  1193.5000 0.14797514    1.66526578e+03
  1194.0000 0.14803713    1.70704361e+03
  1194.5000 0.14809912    1.75281095e+03
  1195.0000 0.14816111    1.80296651e+03
  1195.5000 0.14822310    1.85796094e+03
  1196.0000 0.14828510    1.91830333e+03
  1196.5000 0.14834709    1.98456772e+03
  1197.0000 0.14840908    2.05739870e+03
  1197.5000 0.14847107    2.13751557e+03
  1198.0000 0.14853306    2.22571347e+03
  1198.5000 0.14859506    2.32285973e+03
  1199.0000 0.14865705    2.42988306e+03
  1199.5000 0.14871904    2.54775354e+03
  1200.0000 0.14878103    2.67745226e+03
  1200.5000 0.14884302    2.81993306e+03
  1201.0000 0.14890502    2.97608420e+03
  1201.5000 0.14896701    3.14670589e+03
  1202.0000 0.14902900    3.33252551e+03
  1202.5000 0.14909099    3.53427127e+03
  1203.0000 0.14915299    3.75281329e+03
  1203.5000 0.14921498    3.98936196e+03
  1204.0000 0.14927697    4.24569947e+03
  1204.5000 0.14933896    4.52441405e+03
  1205.0000 0.14940095    4.82909475e+03
  1205.5000 0.14946295    5.16441670e+03
  1206.0000 0.14952494    5.53602493e+03
  1206.5000 0.14958693    5.95014309e+03
  1207.0000 0.14964892    6.41288588e+03
  1207.5000 0.14971091    6.92928842e+03
  1208.0000 0.14977291    7.50204892e+03
  1208.5000 0.14983490    8.12994140e+03
  1209.0000 0.14989689    8.80587056e+03
  1209.5000 0.14995888    9.51468387e+03
  1210.0000 0.15002087    1.02311695e+04
  1210.5000 0.15008287    1.09191150e+04
  1211.0000 0.15014486    1.15326849e+04
  1211.5000 0.15020685    1.20212818e+04
  1212.0000 0.15026884    1.23380221e+04
  1212.5000 0.15033083    1.24500044e+04
  1213.0000 0.15039283    1.23467027e+04
  1213.5000 0.15045482    1.20427382e+04
  1214.0000 0.15051681    1.15736490e+04
  1214.5000 0.15057880    1.09866523e+04
  1215.0000 0.15064080    1.03303592e+04
  1215.5000 0.15070279    9.64690353e+03
  1216.0000 0.15076478    8.96797134e+03
  1216.5000 0.15082677    8.31436772e+03
  1217.0000 0.15088876    7.69784168e+03
  1217.5000 0.15095076    7.12380218e+03
  1218.0000 0.15101275    6.59389067e+03
  1218.5000 0.15107474    6.10784279e+03
  1219.0000 0.15113673    5.66452306e+03
  1219.5000 0.15119872    5.26233229e+03
  1220.0000 0.15126072    4.89929720e+03
  1220.5000 0.15132271    4.57308620e+03
  1221.0000 0.15138470    4.28106531e+03
  1221.5000 0.15144669    4.02040638e+03
  1222.0000 0.15150868    3.78821678e+03
  1222.5000 0.15157068    3.58165813e+03
  1223.0000 0.15163267    3.39803625e+03
  1223.5000 0.15169466    3.23485831e+03
  1224.0000 0.15175665    3.08986144e+03
  1224.5000 0.15181865    2.96102005e+03
  1225.0000 0.15188064    2.84653904e+03
  1225.5000 0.15194263    2.74483864e+03
  1226.0000 0.15200462    2.65453524e+03
  1226.5000 0.15206661    2.57442077e+03
  1227.0000 0.15212861    2.50344245e+03
  1227.5000 0.15219060    2.44068388e+03
  1228.0000 0.15225259    2.38534783e+03
  1228.5000 0.15231458    2.33674095e+03
  1229.0000 0.15237657    2.29426039e+03
  1229.5000 0.15243857    2.25738213e+03
  1230.0000 0.15250056    2.22565100e+03
  1230.5000 0.15256255    2.19867202e+03
  1231.0000 0.15262454    2.17610309e+03
  1231.5000 0.15268653    2.15764872e+03
  1232.0000 0.15274853    2.14305474e+03
  1232.5000 0.15281052    2.13210378e+03
  1233.0000 0.15287251    2.12461156e+03
  1233.5000 0.15293450    2.12042371e+03
  1234.0000 0.15299650    2.11941323e+03
  1234.5000 0.15305849    2.12147836e+03
  1235.0000 0.15312048    2.12654097e+03
  1235.5000 0.15318247    2.13454528e+03
  1236.0000 0.15324446    2.14545699e+03
  1236.5000 0.15330646    2.15926280e+03
  1237.0000 0.15336845    2.17597021e+03
  1237.5000 0.15343044    2.19560770e+03
  1238.0000 0.15349243    2.21822531e+03
  1238.5000 0.15355442    2.24389552e+03
  1239.0000 0.15361642    2.27271456e+03
  1239.5000 0.15367841    2.30480422e+03
  1240.0000 0.15374040    2.34031401e+03
  1240.5000 0.15380239    2.37942403e+03
  1241.0000 0.15386438    2.42234830e+03
  1241.5000 0.15392638    2.46933893e+03
  1242.0000 0.15398837    2.52069092e+03
  1242.5000 0.15405036    2.57674799e+03
  1243.0000 0.15411235    2.63790926e+03
  1243.5000 0.15417434    2.70463697e+03
  1244.0000 0.15423634    2.77746530e+03
  1244.5000 0.15429833    2.85701004e+03
  1245.0000 0.15436032    2.94397899e+03
  1245.5000 0.15442231    3.03918251e+03
  1246.0000 0.15448431    3.14354298e+03
  1246.5000 0.15454630    3.25810154e+03
  1247.0000 0.15460829    3.38401882e+03
  1247.5000 0.15467028    3.52256462e+03
  1248.0000 0.15473227    3.67508877e+03
  1248.5000 0.15479427    3.84296140e+03
  1249.0000 0.15485626    4.02746589e+03
  1249.5000 0.15491825    4.22962243e+03
  1250.0000 0.15498024    4.44991601e+03
  1250.5000 0.15504223    4.68790486e+03
  1251.0000 0.15510423    4.94170190e+03
  1251.5000 0.15516622    5.20736549e+03
  1252.0000 0.15522821    5.47831787e+03
  1252.5000 0.15529020    5.74502755e+03
  1253.0000 0.15535219    5.99529850e+03
  1253.5000 0.15541419    6.21549896e+03
  1254.0000 0.15547618    6.39280506e+03
  1254.5000 0.15553817    6.51801462e+03
  1255.0000 0.15560016    6.58795895e+03
  1255.5000 0.15566216    6.60645865e+03
  1256.0000 0.15572415    6.58336289e+03
  1256.5000 0.15578614    6.53213732e+03
  1257.0000 0.15584813    6.46705588e+03
  1257.5000 0.15591012    6.40096686e+03
  1258.0000 0.15597212    6.34407476e+03
  1258.5000 0.15603411    6.30366089e+03
  1259.0000 0.15609610    6.28440923e+03
  1259.5000 0.15615809    6.28899515e+03
  1260.0000 0.15622008    6.31870160e+03
  1260.5000 0.15628208    6.37394495e+03
  1261.0000 0.15634407    6.45467467e+03
  1261.5000 0.15640606    6.56065455e+03
  1262.0000 0.15646805    6.69164974e+03
  1262.5000 0.15653004    6.84754587e+03
  1263.0000 0.15659204    7.02842261e+03
  1263.5000 0.15665403    7.23459869e+03
  1264.0000 0.15671602    7.46666026e+03
  1264.5000 0.15677801    7.72548101e+03
  1265.0000 0.15684001    8.01223936e+03
  1265.5000 0.15690200    8.32843644e+03
  1266.0000 0.15696399    8.67591743e+03
  1266.5000 0.15702598    9.05689791e+03
  1267.0000 0.15708797    9.47399691e+03
  1267.5000 0.15714997    9.93027771e+03
  1268.0000 0.15721196    1.04292980e+04
  1268.5000 0.15727395    1.09751705e+04
  1269.0000 0.15733594    1.15726359e+04
  1269.5000 0.15739793    1.22271506e+04
  1270.0000 0.15745993    1.29449893e+04
  1270.5000 0.15752192    1.37333684e+04
  1271.0000 0.15758391    1.46005897e+04
  1271.5000 0.15764590    1.55562093e+04
  1272.0000 0.15770789    1.66112345e+04
  1272.5000 0.15776989    1.77783509e+04
  1273.0000 0.15783188    1.90721823e+04
  1273.5000 0.15789387    2.05095835e+04
  1274.0000 0.15795586    2.21099618e+04
  1274.5000 0.15801785    2.38956186e+04
  1275.0000 0.15807985    2.58920895e+04
  1275.5000 0.15814184    2.81284463e+04
  1276.0000 0.15820383    3.06374941e+04
  1276.5000 0.15826582    3.34557560e+04
  1277.0000 0.15832782    3.66230694e+04
  1277.5000 0.15838981    4.01815264e+04
  1278.0000 0.15845180    4.41733597e+04
  1278.5000 0.15851379    4.86372140e+04
  1279.0000 0.15857578    5.36020791e+04
  1279.5000 0.15863778    5.90780639e+04
  1280.0000 0.15869977    6.50433376e+04
  1280.5000 0.15876176    7.14272425e+04
  1281.0000 0.15882375    7.80912031e+04
  1281.5000 0.15888574    8.48119112e+04
  1282.0000 0.15894774    9.12750168e+04
  1282.5000 0.15900973    9.70903142e+04
  1283.0000 0.15907172    1.01837492e+05
  1283.5000 0.15913371    1.05141248e+05
  1284.0000 0.15919570    1.06757263e+05
  1284.5000 0.15925770    1.06636268e+05
  1285.0000 0.15931969    1.04936081e+05
  1285.5000 0.15938168    1.01974211e+05
  1286.0000 0.15944367    9.81418413e+04
  1286.5000 0.15950567    9.38138916e+04
  1287.0000 0.15956766    8.92834589e+04
  1287.5000 0.15962965    8.47324027e+04
  1288.0000 0.15969164    8.02357784e+04
  1288.5000 0.15975363    7.57906970e+04
  1289.0000 0.15981563    7.13574904e+04
  1289.5000 0.15987762    6.69000017e+04
  1290.0000 0.15993961    6.24130469e+04
  1290.5000 0.16000160    5.79305277e+04
  1291.0000 0.16006359    5.35161004e+04
  1291.5000 0.16012559    4.92449209e+04
  1292.0000 0.16018758    4.51860161e+04
  1292.5000 0.16024957    4.13910821e+04
  1293.0000 0.16031156    3.78907005e+04
  1293.5000 0.16037355    3.46959580e+04
  1294.0000 0.16043555    3.18027325e+04
  1294.5000 0.16049754    2.91965283e+04
  1295.0000 0.16055953    2.68566889e+04
  1295.5000 0.16062152    2.47595711e+04
  1296.0000 0.16068352    2.28806918e+04
  1296.5000 0.16074551    2.11960525e+04
  1297.0000 0.16080750    1.96828943e+04
  1297.5000 0.16086949    1.83201195e+04
  1298.0000 0.16093148    1.70885634e+04
  1298.5000 0.16099348    1.59712172e+04
  1299.0000 0.16105547    1.49534075e+04
  1299.5000 0.16111746    1.40228597e+04
  1300.0000 0.16117945    1.31695678e+04
  1300.5000 0.16124144    1.23854591e+04
  1301.0000 0.16130344    1.16639378e+04
  1301.5000 0.16136543    1.09994321e+04
  1302.0000 0.16142742    1.03870404e+04
  1302.5000 0.16148941    9.82230830e+03
  1303.0000 0.16155140    9.30111694e+03
  1303.5000 0.16161340    8.81964105e+03
  1304.0000 0.16167539    8.37434027e+03
  1304.5000 0.16173738    7.96195951e+03
  1305.0000 0.16179937    7.57952676e+03
  1305.5000 0.16186136    7.22434453e+03
  1306.0000 0.16192336    6.89397557e+03
  1306.5000 0.16198535    6.58622443e+03
  1307.0000 0.16204734    6.29911710e+03
  1307.5000 0.16210933    6.03088007e+03
  1308.0000 0.16217133    5.77992003e+03
  1308.5000 0.16223332    5.54480481e+03
  1309.0000 0.16229531    5.32424588e+03
  1309.5000 0.16235730    5.11708258e+03
  1310.0000 0.16241929    4.92226794e+03
  1310.5000 0.16248129    4.73885621e+03
  1311.0000 0.16254328    4.56599175e+03
  1311.5000 0.16260527    4.40289927e+03
  1312.0000 0.16266726    4.24887523e+03
  1312.5000 0.16272925    4.10328031e+03
  1313.0000 0.16279125    3.96553274e+03
  1313.5000 0.16285324    3.83510248e+03
  1314.0000 0.16291523    3.71150605e+03
  1314.5000 0.16297722    3.59430202e+03
  1315.0000 0.16303921    3.48308704e+03
  1315.5000 0.16310121    3.37749229e+03
  1316.0000 0.16316320    3.27718040e+03
  1316.5000 0.16322519    3.18184277e+03
  1317.0000 0.16328718    3.09119713e+03
  1317.5000 0.16334918    3.00498549e+03
  1318.0000 0.16341117    2.92297232e+03
  1318.5000 0.16347316    2.84494295e+03
  1319.0000 0.16353515    2.77070227e+03
  1319.5000 0.16359714    2.70007355e+03
  1320.0000 0.16365914    2.63289758e+03
  1320.5000 0.16372113    2.56903189e+03
  1321.0000 0.16378312    2.50835020e+03
  1321.5000 0.16384511    2.45074215e+03
  1322.0000 0.16390710    2.39611309e+03
  1322.5000 0.16396910    2.34438418e+03
  1323.0000 0.16403109    2.29549268e+03
  1323.5000 0.16409308    2.24939248e+03
  1324.0000 0.16415507    2.20605490e+03
  1324.5000 0.16421706    2.16546974e+03
  1325.0000 0.16427906    2.12764673e+03
  1325.5000 0.16434105    2.09261722e+03
  1326.0000 0.16440304    2.06043627e+03
  1326.5000 0.16446503    2.03118515e+03
  1327.0000 0.16452703    2.00497411e+03
  1327.5000 0.16458902    1.98194544e+03
  1328.0000 0.16465101    1.96227669e+03
  1328.5000 0.16471300    1.94618357e+03
  1329.0000 0.16477499    1.93392221e+03
  1329.5000 0.16483699    1.92578964e+03
  1330.0000 0.16489898    1.92212110e+03
  1330.5000 0.16496097    1.92328175e+03
  1331.0000 0.16502296    1.92964928e+03
  1331.5000 0.16508495    1.94158215e+03
  1332.0000 0.16514695    1.95936662e+03
  1332.5000 0.16520894    1.98313389e+03
  1333.0000 0.16527093    2.01273907e+03
  1333.5000 0.16533292    2.04759735e+03
  1334.0000 0.16539491    2.08648500e+03
  1334.5000 0.16545691    2.12733716e+03
  1335.0000 0.16551890    2.16711110e+03
  1335.5000 0.16558089    2.20182303e+03
  1336.0000 0.16564288    2.22687640e+03
  1336.5000 0.16570487    2.23773592e+03
  1337.0000 0.16576687    2.23084518e+03
  1337.5000 0.16582886    2.20449733e+03
  1338.0000 0.16589085    2.15929302e+03
  1338.5000 0.16595284    2.09796760e+03
  1339.0000 0.16601484    2.02467164e+03
  1339.5000 0.16607683    1.94402994e+03
  1340.0000 0.16613882    1.86032837e+03
  1340.5000 0.16620081    1.77702272e+03
  1341.0000 0.16626280    1.69657825e+03
  1341.5000 0.16632480    1.62054017e+03
  1342.0000 0.16638679    1.54971626e+03
  1342.5000 0.16644878    1.48438318e+03
  1343.0000 0.16651077    1.42446872e+03
  1343.5000 0.16657276    1.36969262e+03
  1344.0000 0.16663476    1.31966628e+03
  1344.5000 0.16669675    1.27395836e+03
  1345.0000 0.16675874    1.23213536e+03
  1345.5000 0.16682073    1.19378478e+03
  1346.0000 0.16688272    1.15852695e+03
  1346.5000 0.16694472    1.12601974e+03
  1347.0000 0.16700671    1.09595911e+03
  1347.5000 0.16706870    1.06807729e+03
  1348.0000 0.16713069    1.04213984e+03
  1348.5000 0.16719269    1.01794224e+03
  1349.0000 0.16725468    9.95306408e+02
  1349.5000 0.16731667    9.74077468e+02
  1350.0000 0.16737866    9.54120760e+02
  1350.5000 0.16744065    9.35319202e+02
  1351.0000 0.16750265    9.17570979e+02
  1351.5000 0.16756464    9.00787557e+02
  1352.0000 0.16762663    8.84891985e+02
  1352.5000 0.16768862    8.69817451e+02
  1353.0000 0.16775061    8.55506074e+02
  1353.5000 0.16781261    8.41907891e+02
  1354.0000 0.16787460    8.28980018e+02
  1354.5000 0.16793659    8.16685958e+02
  1355.0000 0.16799858    8.04995021e+02
  1355.5000 0.16806057    7.93881850e+02
  1356.0000 0.16812257    7.83325990e+02
  1356.5000 0.16818456    7.73311481e+02
  1357.0000 0.16824655    7.63826393e+02
  1357.5000 0.16830854    7.54862227e+02
  1358.0000 0.16837054    7.46413043e+02
  1358.5000 0.16843253    7.38474131e+02
  1359.0000 0.16849452    7.31039995e+02
  1359.5000 0.16855651    7.24101348e+02
  1360.0000 0.16861850    7.17640847e+02
  1360.5000 0.16868050    7.11627435e+02
  1361.0000 0.16874249    7.06009607e+02
  1361.5000 0.16880448    7.00708739e+02
  1362.0000 0.16886647    6.95614905e+02
  1362.5000 0.16892846    6.90588830e+02
  1363.0000 0.16899046    6.85473817e+02
  1363.5000 0.16905245    6.80119054e+02
  1364.0000 0.16911444    6.74410292e+02
  1364.5000 0.16917643    6.68297748e+02
  1365.0000 0.16923842    6.61809232e+02
  1365.5000 0.16930042    6.55042043e+02
  1366.0000 0.16936241    6.48137322e+02
  1366.5000 0.16942440    6.41247937e+02
  1367.0000 0.16948639    6.34511038e+02
  1367.5000 0.16954838    6.28030986e+02
  1368.0000 0.16961038    6.21872447e+02
  1368.5000 0.16967237    6.16060395e+02
  1369.0000 0.16973436    6.10583796e+02
  1369.5000 0.16979635    6.05401347e+02
  1370.0000 0.16985835    6.00449457e+02
  1370.5000 0.16992034    5.95653353e+02
  1371.0000 0.16998233    5.90941307e+02
  1371.5000 0.17004432    5.86259659e+02
  1372.0000 0.17010631    5.81584166e+02
  1372.5000 0.17016831    5.76923393e+02
  1373.0000 0.17023030    5.72313056e+02
  1373.5000 0.17029229    5.67804304e+02
  1374.0000 0.17035428    5.63451071e+02
  1374.5000 0.17041627    5.59300605e+02
  1375.0000 0.17047827    5.55388711e+02
  1375.5000 0.17054026    5.51739033e+02
  1376.0000 0.17060225    5.48364779e+02
  1376.5000 0.17066424    5.45271402e+02
  1377.0000 0.17072623    5.42459263e+02
  1377.5000 0.17078823    5.39925838e+02
  1378.0000 0.17085022    5.37667353e+02
  1378.5000 0.17091221    5.35679899e+02
  1379.0000 0.17097420    5.33960151e+02
  1379.5000 0.17103620    5.32505798e+02
  1380.0000 0.17109819    5.31315791e+02
  1380.5000 0.17116018    5.30390474e+02
  1381.0000 0.17122217    5.29731643e+02
  1381.5000 0.17128416    5.29342578e+02
  1382.0000 0.17134616    5.29228062e+02
  1382.5000 0.17140815    5.29394398e+02
  1383.0000 0.17147014    5.29849436e+02
  1383.5000 0.17153213    5.30602620e+02
  1384.0000 0.17159412    5.31665049e+02
  1384.5000 0.17165612    5.33049560e+02
  1385.0000 0.17171811    5.34770840e+02
  1385.5000 0.17178010    5.36845553e+02
  1386.0000 0.17184209    5.39292510e+02
  1386.5000 0.17190408    5.42132857e+02
  1387.0000 0.17196608    5.45390309e+02
  1387.5000 0.17202807    5.49091417e+02
  1388.0000 0.17209006    5.53265883e+02
  1388.5000 0.17215205    5.57946930e+02
  1389.0000 0.17221405    5.63171720e+02
  1389.5000 0.17227604    5.68981856e+02
  1390.0000 0.17233803    5.75423953e+02
  1390.5000 0.17240002    5.82550307e+02
  1391.0000 0.17246201    5.90419671e+02
  1391.5000 0.17252401    5.99098156e+02
  1392.0000 0.17258600    6.08660290e+02
  1392.5000 0.17264799    6.19190241e+02
  1393.0000 0.17270998    6.30783254e+02
  1393.5000 0.17277197    6.43547324e+02
  1394.0000 0.17283397    6.57605151e+02
  1394.5000 0.17289596    6.73096428e+02
  1395.0000 0.17295795    6.90180493e+02
  1395.5000 0.17301994    7.09039427e+02
  1396.0000 0.17308193    7.29881627e+02
  1396.5000 0.17314393    7.52945913e+02
  1397.0000 0.17320592    7.78506198e+02
  1397.5000 0.17326791    8.06876708e+02
  1398.0000 0.17332990    8.38417674e+02
  1398.5000 0.17339189    8.73541307e+02
  1399.0000 0.17345389    9.12717639e+02
  1399.5000 0.17351588    9.56479508e+02
  1400.0000 0.17357787    1.00542542e+03
  1400.5000 0.17363986    1.06021823e+03
  1401.0000 0.17370186    1.12157631e+03
  1401.5000 0.17376385    1.19025226e+03
  1402.0000 0.17382584    1.26699164e+03
  1402.5000 0.17388783    1.35246174e+03
  1403.0000 0.17394982    1.44713724e+03
  1403.5000 0.17401182    1.55112902e+03
  1404.0000 0.17407381    1.66394618e+03
  1404.5000 0.17413580    1.78419599e+03
  1405.0000 0.17419779    1.90925880e+03
  1405.5000 0.17425978    2.03502851e+03
  1406.0000 0.17432178    2.15587398e+03
  1406.5000 0.17438377    2.26501309e+03
  1407.0000 0.17444576    2.35543123e+03
  1407.5000 0.17450775    2.42126780e+03
  1408.0000 0.17456974    2.45928969e+03
  1408.5000 0.17463174    2.46987271e+03
  1409.0000 0.17469373    2.45703802e+03
  1409.5000 0.17475572    2.42752850e+03
  1410.0000 0.17481771    2.38935819e+03
  1410.5000 0.17487971    2.35041432e+03
  1411.0000 0.17494170    2.31750606e+03
  1411.5000 0.17500369    2.29594719e+03
  1412.0000 0.17506568    2.28954129e+03
  1412.5000 0.17512767    2.30076785e+03
  1413.0000 0.17518967    2.33099875e+03
  1413.5000 0.17525166    2.38063895e+03
  1414.0000 0.17531365    2.44914612e+03
  1414.5000 0.17537564    2.53493467e+03
  1415.0000 0.17543763    2.63521994e+03
  1415.5000 0.17549963    2.74591444e+03
  1416.0000 0.17556162    2.86173965e+03
  1416.5000 0.17562361    2.97672066e+03
  1417.0000 0.17568560    3.08512757e+03
  1417.5000 0.17574759    3.18269360e+03
  1418.0000 0.17580959    3.26767376e+03
  1418.5000 0.17587158    3.34121513e+03
  1419.0000 0.17593357    3.40673728e+03
  1419.5000 0.17599556    3.46845979e+03
  1420.0000 0.17605756    3.52956596e+03
  1420.5000 0.17611955    3.59056692e+03
  1421.0000 0.17618154    3.64829802e+03
  1421.5000 0.17624353    3.69582312e+03
  1422.0000 0.17630552    3.72340212e+03
  1422.5000 0.17636752    3.72049070e+03
  1423.0000 0.17642951    3.67838106e+03
  1423.5000 0.17649150    3.59266907e+03
  1424.0000 0.17655349    3.46459127e+03
  1424.5000 0.17661548    3.30068672e+03
  1425.0000 0.17667748    3.11102425e+03
  1425.5000 0.17673947    2.90684652e+03
  1426.0000 0.17680146    2.69853134e+03
  1426.5000 0.17686345    2.49436638e+03
  1427.0000 0.17692544    2.30015780e+03
  1427.5000 0.17698744    2.11941866e+03
  1428.0000 0.17704943    1.95383597e+03
  1428.5000 0.17711142    1.80379399e+03
  1429.0000 0.17717341    1.66883368e+03
  1429.5000 0.17723540    1.54800618e+03
  1430.0000 0.17729740    1.44012119e+03
  1430.5000 0.17735939    1.34390932e+03
  1431.0000 0.17742138    1.25812094e+03
  1431.5000 0.17748337    1.18158144e+03
  1432.0000 0.17754537    1.11321814e+03
  1432.5000 0.17760736    1.05206956e+03
  1433.0000 0.17766935    9.97284443e+02
  1433.5000 0.17773134    9.48115197e+02
  1434.0000 0.17779333    9.03908659e+02
  1434.5000 0.17785533    8.64095960e+02
  1435.0000 0.17791732    8.28182508e+02
  1435.5000 0.17797931    7.95738588e+02
  1436.0000 0.17804130    7.66390855e+02
  1436.5000 0.17810329    7.39814780e+02
  1437.0000 0.17816529    7.15728050e+02
  1437.5000 0.17822728    6.93884835e+02
  1438.0000 0.17828927    6.74070865e+02
  1438.5000 0.17835126    6.56099202e+02
  1439.0000 0.17841325    6.39806618e+02
  1439.5000 0.17847525    6.25050518e+02
  1440.0000 0.17853724    6.11706302e+02
  1440.5000 0.17859923    5.99665127e+02
  1441.0000 0.17866122    5.88831996e+02
  1441.5000 0.17872322    5.79124137e+02
  1442.0000 0.17878521    5.70469621e+02
  1442.5000 0.17884720    5.62806194e+02
  1443.0000 0.17890919    5.56080284e+02
  1443.5000 0.17897118    5.50246169e+02
  1444.0000 0.17903318    5.45265277e+02
  1444.5000 0.17909517    5.41105609e+02
  1445.0000 0.17915716    5.37741261e+02
  1445.5000 0.17921915    5.35152048e+02
  1446.0000 0.17928114    5.33323208e+02
  1446.5000 0.17934314    5.32245183e+02
  1447.0000 0.17940513    5.31913481e+02
  1447.5000 0.17946712    5.32328601e+02
  1448.0000 0.17952911    5.33496032e+02
  1448.5000 0.17959110    5.35426313e+02
  1449.0000 0.17965310    5.38135173e+02
  1449.5000 0.17971509    5.41643729e+02
  1450.0000 0.17977708    5.45978777e+02
  1450.5000 0.17983907    5.51173152e+02
  1451.0000 0.17990107    5.57266183e+02
  1451.5000 0.17996306    5.64304251e+02
  1452.0000 0.18002505    5.72341459e+02
  1452.5000 0.18008704    5.81440424e+02
  1453.0000 0.18014903    5.91673226e+02
  1453.5000 0.18021103    6.03122519e+02
  1454.0000 0.18027302    6.15882841e+02
  1454.5000 0.18033501    6.30062150e+02
  1455.0000 0.18039700    6.45783626e+02
  1455.5000 0.18045899    6.63187791e+02
  1456.0000 0.18052099    6.82434983e+02
  1456.5000 0.18058298    7.03708274e+02
  1457.0000 0.18064497    7.27216874e+02
  1457.5000 0.18070696    7.53200146e+02
  1458.0000 0.18076895    7.81932295e+02
  1458.5000 0.18083095    8.13727876e+02
  1459.0000 0.18089294    8.48948227e+02
  1459.5000 0.18095493    8.88008974e+02
  1460.0000 0.18101692    9.31388741e+02
  1460.5000 0.18107891    9.79639199e+02
  1461.0000 0.18114091    1.03339652e+03
  1461.5000 0.18120290    1.09339424e+03
  1462.0000 0.18126489    1.16047743e+03
  1462.5000 0.18132688    1.23561759e+03
  1463.0000 0.18138888    1.31992749e+03
  1463.5000 0.18145087    1.41467420e+03
  1464.0000 0.18151286    1.52128726e+03
  1464.5000 0.18157485    1.64135721e+03
  1465.0000 0.18163684    1.77661645e+03
  1465.5000 0.18169884    1.92889041e+03
  1466.0000 0.18176083    2.10000088e+03
  1466.5000 0.18182282    2.29159600e+03
  1467.0000 0.18188481    2.50487380e+03
  1467.5000 0.18194680    2.74016122e+03
  1468.0000 0.18200880    2.99631614e+03
  1468.5000 0.18207079    3.26994942e+03
  1469.0000 0.18213278    3.55453540e+03
  1469.5000 0.18219477    3.83960862e+03
  1470.0000 0.18225676    4.11041836e+03
  1470.5000 0.18231876    4.34855069e+03
  1471.0000 0.18238075    4.53396320e+03
  1471.5000 0.18244274    4.64843306e+03
  1472.0000 0.18250473    4.67962798e+03
  1472.5000 0.18256673    4.62431391e+03
  1473.0000 0.18262872    4.48926059e+03
  1473.5000 0.18269071    4.28940512e+03
  1474.0000 0.18275270    4.04415199e+03
  1474.5000 0.18281469    3.77338014e+03
  1475.0000 0.18287669    3.49445097e+03
  1475.5000 0.18293868    3.22070667e+03
  1476.0000 0.18300067    2.96125221e+03
  1476.5000 0.18306266    2.72151683e+03
  1477.0000 0.18312465    2.50412051e+03
  1477.5000 0.18318665    2.30973706e+03
  1478.0000 0.18324864    2.13780726e+03
  1478.5000 0.18331063    1.98706367e+03
  1479.0000 0.18337262    1.85588255e+03
  1479.5000 0.18343461    1.74249660e+03
  1480.0000 0.18349661    1.64510318e+03
  1480.5000 0.18355860    1.56189687e+03
  1481.0000 0.18362059    1.49105035e+03
  1481.5000 0.18368258    1.43066686e+03
  1482.0000 0.18374458    1.37873227e+03
  1482.5000 0.18380657    1.33310276e+03
  1483.0000 0.18386856    1.29156685e+03
  1483.5000 0.18393055    1.25200597e+03
  1484.0000 0.18399254    1.21263603e+03
  1484.5000 0.18405454    1.17225659e+03
  1485.0000 0.18411653    1.13040195e+03
  1485.5000 0.18417852    1.08731780e+03
  1486.0000 0.18424051    1.04376945e+03
  1486.5000 0.18430250    1.00076608e+03
  1487.0000 0.18436450    9.59305495e+02
  1487.5000 0.18442649    9.20206360e+02
  1488.0000 0.18448848    8.84039835e+02
  1488.5000 0.18455047    8.51135532e+02
  1489.0000 0.18461246    8.21626920e+02
  1489.5000 0.18467446    7.95508262e+02
  1490.0000 0.18473645    7.72686927e+02
  1490.5000 0.18479844    7.53024521e+02
  1491.0000 0.18486043    7.36365939e+02
  1491.5000 0.18492242    7.22557924e+02
  1492.0000 0.18498442    7.11459285e+02
  1492.5000 0.18504641    7.02944573e+02
  1493.0000 0.18510840    6.96902298e+02
  1493.5000 0.18517039    6.93228046e+02
  1494.0000 0.18523239    6.91812339e+02
  1494.5000 0.18529438    6.92522885e+02
  1495.0000 0.18535637    6.95181545e+02
  1495.5000 0.18541836    6.99538187e+02
  1496.0000 0.18548035    7.05247097e+02
  1496.5000 0.18554235    7.11856267e+02
  1497.0000 0.18560434    7.18823329e+02
  1497.5000 0.18566633    7.25569495e+02
  1498.0000 0.18572832    7.31570031e+02
  1498.5000 0.18579031    7.36458244e+02
  1499.0000 0.18585231    7.40102524e+02
  1499.5000 0.18591430    7.42620039e+02
  1500.0000 0.18597629    7.44320265e+02
  1500.5000 0.18603828    7.45607642e+02
  1501.0000 0.18610027    7.46889341e+02
  1501.5000 0.18616227    7.48522211e+02
  1502.0000 0.18622426    7.50805390e+02
  1502.5000 0.18628625    7.54001266e+02
  1503.0000 0.18634824    7.58359858e+02
  1503.5000 0.18641024    7.64129914e+02
  1504.0000 0.18647223    7.71554794e+02
  1504.5000 0.18653422    7.80861423e+02
  1505.0000 0.18659621    7.92251775e+02
  1505.5000 0.18665820    8.05901632e+02
  1506.0000 0.18672020    8.21966305e+02
  1506.5000 0.18678219    8.40590458e+02
  1507.0000 0.18684418    8.61919144e+02
  1507.5000 0.18690617    8.86108211e+02
  1508.0000 0.18696816    9.13333357e+02
  1508.5000 0.18703016    9.43797858e+02
  1509.0000 0.18709215    9.77739358e+02
  1509.5000 0.18715414    1.01543622e+03
  1510.0000 0.18721613    1.05721390e+03
  1510.5000 0.18727812    1.10345180e+03
  1511.0000 0.18734012    1.15459092e+03
  1511.5000 0.18740211    1.21114268e+03
  1512.0000 0.18746410    1.27369917e+03
  1512.5000 0.18752609    1.34294508e+03
  1513.0000 0.18758809    1.41967171e+03
  1513.5000 0.18765008    1.50479306e+03
  1514.0000 0.18771207    1.59936438e+03
  1514.5000 0.18777406    1.70460308e+03
  1515.0000 0.18783605    1.82191191e+03
  1515.5000 0.18789805    1.95290368e+03
  1516.0000 0.18796004    2.09942628e+03
  1516.5000 0.18802203    2.26358556e+03
  1517.0000 0.18808402    2.44776169e+03
  1517.5000 0.18814601    2.65461203e+03
  1518.0000 0.18820801    2.88704943e+03
  1518.5000 0.18827000    3.14817889e+03
  1519.0000 0.18833199    3.44116862e+03
  1519.5000 0.18839398    3.76902276e+03
  1520.0000 0.18845597    4.13421685e+03
  1520.5000 0.18851797    4.53815765e+03
  1521.0000 0.18857996    4.98044804e+03
  1521.5000 0.18864195    5.45798723e+03
  1522.0000 0.18870394    5.96402812e+03
  1522.5000 0.18876593    6.48743122e+03
  1523.0000 0.18882793    7.01243882e+03
  1523.5000 0.18888992    7.51923457e+03
  1524.0000 0.18895191    7.98528266e+03
  1524.5000 0.18901390    8.38707060e+03
  1525.0000 0.18907590    8.70175607e+03
  1525.5000 0.18913789    8.90860487e+03
  1526.0000 0.18919988    8.99071729e+03
  1526.5000 0.18926187    8.93759548e+03
  1527.0000 0.18932386    8.74820486e+03
  1527.5000 0.18938586    8.43304207e+03
  1528.0000 0.18944785    8.01359871e+03
  1528.5000 0.18950984    7.51888029e+03
  1529.0000 0.18957183    6.98026906e+03
  1529.5000 0.18963382    6.42669109e+03
  1530.0000 0.18969582    5.88147842e+03
  1530.5000 0.18975781    5.36123851e+03
  1531.0000 0.18981980    4.87625176e+03
  1531.5000 0.18988179    4.43167285e+03
  1532.0000 0.18994378    4.02894123e+03
  1532.5000 0.19000578    3.66705399e+03
  1533.0000 0.19006777    3.34356372e+03
  1533.5000 0.19012976    3.05528997e+03
  1534.0000 0.19019175    2.79879000e+03
  1534.5000 0.19025375    2.57064907e+03
  1535.0000 0.19031574    2.36764514e+03
  1535.5000 0.19037773    2.18683112e+03
  1536.0000 0.19043972    2.02556565e+03
  1536.5000 0.19050171    1.88151357e+03
  1537.0000 0.19056371    1.75262956e+03
  1537.5000 0.19062570    1.63713386e+03
  1538.0000 0.19068769    1.53348483e+03
  1538.5000 0.19074968    1.44035176e+03
  1539.0000 0.19081167    1.35658897e+03
  1539.5000 0.19087367    1.28121228e+03
  1540.0000 0.19093566    1.21337760e+03
  1540.5000 0.19099765    1.15236146e+03
  1541.0000 0.19105964    1.09754285e+03
  1541.5000 0.19112163    1.04838530e+03
  1542.0000 0.19118363    1.00441823e+03
  1542.5000 0.19124562    9.65215800e+02
  1543.0000 0.19130761    9.30372037e+02
  1543.5000 0.19136960    8.99470863e+02
  1544.0000 0.19143160    8.72051432e+02
  1544.5000 0.19149359    8.47572047e+02
  1545.0000 0.19155558    8.25381034e+02
  1545.5000 0.19161757    8.04708994e+02
  1546.0000 0.19167956    7.84700217e+02
  1546.5000 0.19174156    7.64495376e+02
  1547.0000 0.19180355    7.43358060e+02
  1547.5000 0.19186554    7.20809299e+02
  1548.0000 0.19192753    6.96715960e+02
  1548.5000 0.19198952    6.71290984e+02
  1549.0000 0.19205152    6.45004503e+02
  1549.5000 0.19211351    6.18446606e+02
  1550.0000 0.19217550    5.92195986e+02
  1550.5000 0.19223749    5.66731301e+02
  1551.0000 0.19229948    5.42393624e+02
  1551.5000 0.19236148    5.19388263e+02
  1552.0000 0.19242347    4.97808049e+02
  1552.5000 0.19248546    4.77663346e+02
  1553.0000 0.19254745    4.58910015e+02
  1553.5000 0.19260944    4.41471693e+02
  1554.0000 0.19267144    4.25255839e+02
  1554.5000 0.19273343    4.10164430e+02
  1555.0000 0.19279542    3.96100595e+02
  1555.5000 0.19285741    3.82972410e+02
  1556.0000 0.19291941    3.70694807e+02
  1556.5000 0.19298140    3.59190301e+02
  1557.0000 0.19304339    3.48389016e+02
  1557.5000 0.19310538    3.38228313e+02
  1558.0000 0.19316737    3.28652224e+02
  1558.5000 0.19322937    3.19610816e+02
  1559.0000 0.19329136    3.11059542e+02
  1559.5000 0.19335335    3.02958623e+02
  1560.0000 0.19341534    2.95272490e+02
  1560.5000 0.19347733    2.87969273e+02
  1561.0000 0.19353933    2.81020352e+02
  1561.5000 0.19360132    2.74399966e+02
  1562.0000 0.19366331    2.68084866e+02
  1562.5000 0.19372530    2.62054021e+02
  1563.0000 0.19378729    2.56288351e+02
  1563.5000 0.19384929    2.50770508e+02
  1564.0000 0.19391128    2.45484678e+02
  1564.5000 0.19397327    2.40416412e+02
  1565.0000 0.19403526    2.35552474e+02
  1565.5000 0.19409726    2.30880718e+02
  1566.0000 0.19415925    2.26389969e+02
  1566.5000 0.19422124    2.22069929e+02
  1567.0000 0.19428323    2.17911085e+02
  1567.5000 0.19434522    2.13904639e+02
  1568.0000 0.19440722    2.10042433e+02
  1568.5000 0.19446921    2.06316895e+02
  1569.0000 0.19453120    2.02720983e+02
  1569.5000 0.19459319    1.99248139e+02
  1570.0000 0.19465518    1.95892245e+02
  1570.5000 0.19471718    1.92647588e+02
  1571.0000 0.19477917    1.89508824e+02
  1571.5000 0.19484116    1.86470951e+02
  1572.0000 0.19490315    1.83529276e+02
  1572.5000 0.19496514    1.80679396e+02
  1573.0000 0.19502714    1.77917173e+02
  1573.5000 0.19508913    1.75238715e+02
  1574.0000 0.19515112    1.72640356e+02
  1574.5000 0.19521311    1.70118642e+02
  1575.0000 0.19527511    1.67670313e+02
  1575.5000 0.19533710    1.65292290e+02
  1576.0000 0.19539909    1.62981666e+02
  1576.5000 0.19546108    1.60735688e+02
  1577.0000 0.19552307    1.58551752e+02
  1577.5000 0.19558507    1.56427390e+02
  1578.0000 0.19564706    1.54360262e+02
  1578.5000 0.19570905    1.52348148e+02
  1579.0000 0.19577104    1.50388942e+02
  1579.5000 0.19583303    1.48480640e+02
  1580.0000 0.19589503    1.46621339e+02
  1580.5000 0.19595702    1.44809229e+02
  1581.0000 0.19601901    1.43042585e+02
  1581.5000 0.19608100    1.41319766e+02
  1582.0000 0.19614299    1.39639208e+02
  1582.5000 0.19620499    1.37999419e+02
  1583.0000 0.19626698    1.36398976e+02
  1583.5000 0.19632897    1.34836521e+02
  1584.0000 0.19639096    1.33310756e+02
  1584.5000 0.19645296    1.31820443e+02
  1585.0000 0.19651495    1.30364397e+02
  1585.5000 0.19657694    1.28941484e+02
  1586.0000 0.19663893    1.27550622e+02
  1586.5000 0.19670092    1.26190772e+02
  1587.0000 0.19676292    1.24860941e+02
  1587.5000 0.19682491    1.23560177e+02
  1588.0000 0.19688690    1.22287568e+02
  1588.5000 0.19694889    1.21042240e+02
  1589.0000 0.19701088    1.19823353e+02
  1589.5000 0.19707288    1.18630104e+02
  1590.0000 0.19713487    1.17461719e+02
  1590.5000 0.19719686    1.16317456e+02
  1591.0000 0.19725885    1.15196605e+02
  1591.5000 0.19732084    1.14098479e+02
  1592.0000 0.19738284    1.13022423e+02
  1592.5000 0.19744483    1.11967802e+02
  1593.0000 0.19750682    1.10934010e+02
  1593.5000 0.19756881    1.09920462e+02
  1594.0000 0.19763080    1.08926594e+02
  1594.5000 0.19769280    1.07951865e+02
  1595.0000 0.19775479    1.06995753e+02
  1595.5000 0.19781678    1.06057757e+02
  1596.0000 0.19787877    1.05137393e+02
  1596.5000 0.19794077    1.04234196e+02
  1597.0000 0.19800276    1.03347716e+02
  1597.5000 0.19806475    1.02477520e+02
  1598.0000 0.19812674    1.01623193e+02
  1598.5000 0.19818873    1.00784332e+02
  1599.0000 0.19825073    9.99605495e+01
  1599.5000 0.19831272    9.91514719e+01
  1600.0000 0.19837471    9.83567387e+01
  1600.5000 0.19843670    9.75760024e+01
  1601.0000 0.19849869    9.68089278e+01
  1601.5000 0.19856069    9.60551913e+01
  1602.0000 0.19862268    9.53144809e+01
  1602.5000 0.19868467    9.45864955e+01
  1603.0000 0.19874666    9.38709448e+01
  1603.5000 0.19880865    9.31675486e+01
  1604.0000 0.19887065    9.24760367e+01
  1604.5000 0.19893264    9.17961483e+01
  1605.0000 0.19899463    9.11276320e+01
  1605.5000 0.19905662    9.04702454e+01
  1606.0000 0.19911862    8.98237548e+01
  1606.5000 0.19918061    8.91879349e+01
  1607.0000 0.19924260    8.85625686e+01
  1607.5000 0.19930459    8.79474467e+01
  1608.0000 0.19936658    8.73423680e+01
  1608.5000 0.19942858    8.67471385e+01
  1609.0000 0.19949057    8.61615720e+01
  1609.5000 0.19955256    8.55854892e+01
  1610.0000 0.19961455    8.50187180e+01
  1610.5000 0.19967654    8.44610931e+01
  1611.0000 0.19973854    8.39124560e+01
  1611.5000 0.19980053    8.33726552e+01
  1612.0000 0.19986252    8.28415452e+01
  1612.5000 0.19992451    8.23189874e+01
  1613.0000 0.19998650    8.18048496e+01
  1613.5000 0.20004850    8.12990056e+01
  1614.0000 0.20011049    8.08013359e+01
  1614.5000 0.20017248    8.03117270e+01
  1615.0000 0.20023447    7.98300719e+01
  1615.5000 0.20029647    7.93562697e+01
  1616.0000 0.20035846    7.88902257e+01
  1616.5000 0.20042045    7.84318516e+01
  1617.0000 0.20048244    7.79810655e+01
  1617.5000 0.20054443    7.75377920e+01
  1618.0000 0.20060643    7.71019618e+01
  1618.5000 0.20066842    7.66735128e+01
  1619.0000 0.20073041    7.62523892e+01
  1619.5000 0.20079240    7.58385424e+01
  1620.0000 0.20085439    7.54319306e+01
  1620.5000 0.20091639    7.50325197e+01
  1621.0000 0.20097838    7.46402828e+01
  1621.5000 0.20104037    7.42552009e+01
  1622.0000 0.20110236    7.38772632e+01
  1622.5000 0.20116435    7.35064674e+01
  1623.0000 0.20122635    7.31428199e+01
  1623.5000 0.20128834    7.27863365e+01
  1624.0000 0.20135033    7.24370427e+01
  1624.5000 0.20141232    7.20949743e+01
  1625.0000 0.20147431    7.17601782e+01
  1625.5000 0.20153631    7.14327125e+01
  1626.0000 0.20159830    7.11126480e+01
  1626.5000 0.20166029    7.08000685e+01
  1627.0000 0.20172228    7.04950717e+01
  1627.5000 0.20178428    7.01977705e+01
  1628.0000 0.20184627    6.99082939e+01
  1628.5000 0.20190826    6.96267887e+01
  1629.0000 0.20197025    6.93534200e+01
  1629.5000 0.20203224    6.90883737e+01
  1630.0000 0.20209424    6.88318577e+01
  1630.5000 0.20215623    6.85841041e+01
  1631.0000 0.20221822    6.83453710e+01
  1631.5000 0.20228021    6.81159454e+01
  1632.0000 0.20234220    6.78961455e+01
  1632.5000 0.20240420    6.76863241e+01
  1633.0000 0.20246619    6.74868715e+01
  1633.5000 0.20252818    6.72982200e+01
  1634.0000 0.20259017    6.71208476e+01
  1634.5000 0.20265216    6.69552830e+01
  1635.0000 0.20271416    6.68021116e+01
  1635.5000 0.20277615    6.66619808e+01
  1636.0000 0.20283814    6.65356079e+01
  1636.5000 0.20290013    6.64237874e+01
  1637.0000 0.20296213    6.63274007e+01
  1637.5000 0.20302412    6.62474259e+01
  1638.0000 0.20308611    6.61849499e+01
  1638.5000 0.20314810    6.61411819e+01
  1639.0000 0.20321009    6.61174686e+01
  1639.5000 0.20327209    6.61153126e+01
  1640.0000 0.20333408    6.61363921e+01
  1640.5000 0.20339607    6.61825849e+01
  1641.0000 0.20345806    6.62559957e+01
  1641.5000 0.20352005    6.63589876e+01
  1642.0000 0.20358205    6.64942184e+01
  1642.5000 0.20364404    6.66646836e+01
  1643.0000 0.20370603    6.68737655e+01
  1643.5000 0.20376802    6.71252912e+01
  1644.0000 0.20383001    6.74235998e+01
  1644.5000 0.20389201    6.77736215e+01
  1645.0000 0.20395400    6.81809693e+01
  1645.5000 0.20401599    6.86520476e+01
  1646.0000 0.20407798    6.91941776e+01
  1646.5000 0.20413998    6.98157457e+01
  1647.0000 0.20420197    7.05263750e+01
  1647.5000 0.20426396    7.13371253e+01
  1648.0000 0.20432595    7.22607238e+01
  1648.5000 0.20438794    7.33118295e+01
  1649.0000 0.20444994    7.45073308e+01
  1649.5000 0.20451193    7.58666754e+01
  1650.0000 0.20457392    7.74122230e+01
  1650.5000 0.20463591    7.91696036e+01
  1651.0000 0.20469790    8.11680453e+01
  1651.5000 0.20475990    8.34406136e+01
  1652.0000 0.20482189    8.60242571e+01
  1652.5000 0.20488388    8.89594983e+01
  1653.0000 0.20494587    9.22895100e+01
  1653.5000 0.20500786    9.60581943e+01
  1654.0000 0.20506986    1.00306712e+02
  1654.5000 0.20513185    1.05067726e+02
  1655.0000 0.20519384    1.10356481e+02
  1655.5000 0.20525583    1.16157877e+02
  1656.0000 0.20531782    1.22409226e+02
  1656.5000 0.20537982    1.28979718e+02
  1657.0000 0.20544181    1.35650338e+02
  1657.5000 0.20550380    1.42101825e+02
  1658.0000 0.20556579    1.47922040e+02
  1658.5000 0.20562779    1.52644209e+02
  1659.0000 0.20568978    1.55819632e+02
  1659.5000 0.20575177    1.57111563e+02
  1660.0000 0.20581376    1.56378798e+02
  1660.5000 0.20587575    1.53713259e+02
  1661.0000 0.20593775    1.49414061e+02
  1661.5000 0.20599974    1.43911189e+02
  1662.0000 0.20606173    1.37672758e+02
  1662.5000 0.20612372    1.31128427e+02
  1663.0000 0.20618571    1.24624849e+02
  1663.5000 0.20624771    1.18411901e+02
  1664.0000 0.20630970    1.12649624e+02
  1664.5000 0.20637169    1.07424958e+02
  1665.0000 0.20643368    1.02770328e+02
  1665.5000 0.20649567    9.86797141e+01
  1666.0000 0.20655767    9.51205257e+01
  1666.5000 0.20661966    9.20412878e+01
  1667.0000 0.20668165    8.93761217e+01
  1667.5000 0.20674364    8.70476426e+01
  1668.0000 0.20680564    8.49702376e+01
  1668.5000 0.20686763    8.30555665e+01
  1669.0000 0.20692962    8.12211106e+01
  1669.5000 0.20699161    7.94006041e+01
  1670.0000 0.20705360    7.75530739e+01
  1670.5000 0.20711560    7.56666489e+01
  1671.0000 0.20717759    7.37552498e+01
  1671.5000 0.20723958    7.18496515e+01
  1672.0000 0.20730157    6.99867490e+01
  1672.5000 0.20736356    6.82007359e+01
  1673.0000 0.20742556    6.65180122e+01
  1673.5000 0.20748755    6.49556658e+01
  1674.0000 0.20754954    6.35223304e+01
  1674.5000 0.20761153    6.22201294e+01
  1675.0000 0.20767352    6.10467869e+01
  1675.5000 0.20773552    5.99974283e+01
  1676.0000 0.20779751    5.90658990e+01
  1676.5000 0.20785950    5.82455985e+01
  1677.0000 0.20792149    5.75298829e+01
  1677.5000 0.20798349    5.69120930e+01
  1678.0000 0.20804548    5.63852430e+01
  1678.5000 0.20810747    5.59413915e+01
  1679.0000 0.20816946    5.55707276e+01
  1679.5000 0.20823145    5.52604696e+01
  1680.0000 0.20829345    5.49938129e+01
  1680.5000 0.20835544    5.47493577e+01
  1681.0000 0.20841743    5.45016276e+01
  1681.5000 0.20847942    5.42232454e+01
  1682.0000 0.20854141    5.38888584e+01
  1682.5000 0.20860341    5.34799804e+01
  1683.0000 0.20866540    5.29890283e+01
  1683.5000 0.20872739    5.24207509e+01
  1684.0000 0.20878938    5.17903422e+01
  1684.5000 0.20885137    5.11191273e+01
  1685.0000 0.20891337    5.04296799e+01
  1685.5000 0.20897536    4.97420109e+01
  1686.0000 0.20903735    4.90715354e+01
  1686.5000 0.20909934    4.84286434e+01
  1687.0000 0.20916133    4.78192848e+01
  1687.5000 0.20922333    4.72459809e+01
  1688.0000 0.20928532    4.67088671e+01
  1688.5000 0.20934731    4.62065719e+01
  1689.0000 0.20940930    4.57368756e+01
  1689.5000 0.20947130    4.52971644e+01
  1690.0000 0.20953329    4.48847229e+01
  1690.5000 0.20959528    4.44969091e+01
  1691.0000 0.20965727    4.41312499e+01
  1691.5000 0.20971926    4.37854863e+01
  1692.0000 0.20978126    4.34575859e+01
  1692.5000 0.20984325    4.31457387e+01
  1693.0000 0.20990524    4.28483425e+01
  1693.5000 0.20996723    4.25639840e+01
  1694.0000 0.21002922    4.22914185e+01
  1694.5000 0.21009122    4.20295504e+01
  1695.0000 0.21015321    4.17774145e+01
  1695.5000 0.21021520    4.15341593e+01
  1696.0000 0.21027719    4.12990326e+01
  1696.5000 0.21033918    4.10713682e+01
  1697.0000 0.21040118    4.08505745e+01
  1697.5000 0.21046317    4.06361252e+01
  1698.0000 0.21052516    4.04275506e+01
  1698.5000 0.21058715    4.02244305e+01
  1699.0000 0.21064915    4.00263875e+01
  1699.5000 0.21071114    3.98330826e+01
  1700.0000 0.21077313    3.96442096e+01
  1700.5000 0.21083512    3.94594916e+01
  1701.0000 0.21089711    3.92786776e+01
  1701.5000 0.21095911    3.91015394e+01
  1702.0000 0.21102110    3.89278690e+01
  1702.5000 0.21108309    3.87574762e+01
  1703.0000 0.21114508    3.85901872e+01
  1703.5000 0.21120707    3.84258422e+01
  1704.0000 0.21126907    3.82642945e+01
  1704.5000 0.21133106    3.81054086e+01
  1705.0000 0.21139305    3.79490597e+01
  1705.5000 0.21145504    3.77951321e+01
  1706.0000 0.21151703    3.76435187e+01
  1706.5000 0.21157903    3.74941200e+01
  1707.0000 0.21164102    3.73468434e+01
  1707.5000 0.21170301    3.72016028e+01
  1708.0000 0.21176500    3.70583175e+01
  1708.5000 0.21182700    3.69169125e+01
  1709.0000 0.21188899    3.67773172e+01
  1709.5000 0.21195098    3.66394658e+01
  1710.0000 0.21201297    3.65032962e+01
  1710.5000 0.21207496    3.63687502e+01
  1711.0000 0.21213696    3.62357730e+01
  1711.5000 0.21219895    3.61043130e+01
  1712.0000 0.21226094    3.59743214e+01
  1712.5000 0.21232293    3.58457522e+01
  1713.0000 0.21238492    3.57185619e+01
  1713.5000 0.21244692    3.55927092e+01
  1714.0000 0.21250891    3.54681551e+01
  1714.5000 0.21257090    3.53448626e+01
  1715.0000 0.21263289    3.52227964e+01
  1715.5000 0.21269488    3.51019231e+01
  1716.0000 0.21275688    3.49822109e+01
  1716.5000 0.21281887    3.48636294e+01
  1717.0000 0.21288086    3.47461499e+01
  1717.5000 0.21294285    3.46297447e+01
  1718.0000 0.21300484    3.45143875e+01
  1718.5000 0.21306684    3.44000532e+01
  1719.0000 0.21312883    3.42867177e+01
  1719.5000 0.21319082    3.41743580e+01
  1720.0000 0.21325281    3.40629521e+01
  1720.5000 0.21331481    3.39524788e+01
  1721.0000 0.21337680    3.38429180e+01
  1721.5000 0.21343879    3.37342501e+01
  1722.0000 0.21350078    3.36264565e+01
  1722.5000 0.21356277    3.35195192e+01
  1723.0000 0.21362477    3.34134209e+01
  1723.5000 0.21368676    3.33081451e+01
  1724.0000 0.21374875    3.32036758e+01
  1724.5000 0.21381074    3.30999974e+01
  1725.0000 0.21387273    3.29970953e+01
  1725.5000 0.21393473    3.28949550e+01
  1726.0000 0.21399672    3.27935627e+01
  1726.5000 0.21405871    3.26929051e+01
  1727.0000 0.21412070    3.25929692e+01
  1727.5000 0.21418269    3.24937427e+01
  1728.0000 0.21424469    3.23952133e+01
  1728.5000 0.21430668    3.22973695e+01
  1729.0000 0.21436867    3.22001999e+01
  1729.5000 0.21443066    3.21036936e+01
  1730.0000 0.21449266    3.20078400e+01
  1730.5000 0.21455465    3.19126288e+01
  1731.0000 0.21461664    3.18180501e+01
  1731.5000 0.21467863    3.17240941e+01
  1732.0000 0.21474062    3.16307514e+01
  1732.5000 0.21480262    3.15380130e+01
  1733.0000 0.21486461    3.14458700e+01
  1733.5000 0.21492660    3.13543138e+01
  1734.0000 0.21498859    3.12633359e+01
  1734.5000 0.21505058    3.11729283e+01
  1735.0000 0.21511258    3.10830830e+01
  1735.5000 0.21517457    3.09937924e+01
  1736.0000 0.21523656    3.09050488e+01
  1736.5000 0.21529855    3.08168450e+01
  1737.0000 0.21536054    3.07291738e+01
  1737.5000 0.21542254    3.06420283e+01
  1738.0000 0.21548453    3.05554018e+01
  1738.5000 0.21554652    3.04692875e+01
  1739.0000 0.21560851    3.03836792e+01
  1739.5000 0.21567051    3.02985704e+01
  1740.0000 0.21573250    3.02139550e+01
  1740.5000 0.21579449    3.01298270e+01
  1741.0000 0.21585648    3.00461806e+01
  1741.5000 0.21591847    2.99630100e+01
  1742.0000 0.21598047    2.98803096e+01
  1742.5000 0.21604246    2.97980740e+01
  1743.0000 0.21610445    2.97162978e+01
  1743.5000 0.21616644    2.96349758e+01
  1744.0000 0.21622843    2.95541028e+01
  1744.5000 0.21629043    2.94736738e+01
  1745.0000 0.21635242    2.93936839e+01
  1745.5000 0.21641441    2.93141284e+01
  1746.0000 0.21647640    2.92350024e+01
  1746.5000 0.21653839    2.91563014e+01
  1747.0000 0.21660039    2.90780208e+01
  1747.5000 0.21666238    2.90001563e+01
  1748.0000 0.21672437    2.89227035e+01
  1748.5000 0.21678636    2.88456580e+01
  1749.0000 0.21684835    2.87690159e+01
  1749.5000 0.21691035    2.86927728e+01
  1750.0000 0.21697234    2.86169249e+01
  1750.5000 0.21703433    2.85414682e+01
  1751.0000 0.21709632    2.84663987e+01
  1751.5000 0.21715832    2.83917127e+01
  1752.0000 0.21722031    2.83174065e+01
  1752.5000 0.21728230    2.82434764e+01
  1753.0000 0.21734429    2.81699188e+01
  1753.5000 0.21740628    2.80967301e+01
  1754.0000 0.21746828    2.80239069e+01
  1754.5000 0.21753027    2.79514457e+01
  1755.0000 0.21759226    2.78793431e+01
  1755.5000 0.21765425    2.78075960e+01
  1756.0000 0.21771624    2.77362010e+01
  1756.5000 0.21777824    2.76651549e+01
  1757.0000 0.21784023    2.75944546e+01
  1757.5000 0.21790222    2.75240969e+01
  1758.0000 0.21796421    2.74540789e+01
  1758.5000 0.21802620    2.73843976e+01
  1759.0000 0.21808820    2.73150499e+01
  1759.5000 0.21815019    2.72460330e+01
  1760.0000 0.21821218    2.71773441e+01
  1760.5000 0.21827417    2.71089802e+01
  1761.0000 0.21833617    2.70409387e+01
  1761.5000 0.21839816    2.69732168e+01
  1762.0000 0.21846015    2.69058119e+01
  1762.5000 0.21852214    2.68387212e+01
  1763.0000 0.21858413    2.67719421e+01
  1763.5000 0.21864613    2.67054721e+01
  1764.0000 0.21870812    2.66393087e+01
  1764.5000 0.21877011    2.65734494e+01
  1765.0000 0.21883210    2.65078916e+01
  1765.5000 0.21889409    2.64426329e+01
  1766.0000 0.21895609    2.63776710e+01
  1766.5000 0.21901808    2.63130035e+01
  1767.0000 0.21908007    2.62486281e+01
  1767.5000 0.21914206    2.61845424e+01
  1768.0000 0.21920405    2.61207442e+01
  1768.5000 0.21926605    2.60572312e+01
  1769.0000 0.21932804    2.59940013e+01
  1769.5000 0.21939003    2.59310522e+01
  1770.0000 0.21945202    2.58683819e+01
  1770.5000 0.21951402    2.58059881e+01
  1771.0000 0.21957601    2.57438689e+01
  1771.5000 0.21963800    2.56820220e+01
  1772.0000 0.21969999    2.56204455e+01
  1772.5000 0.21976198    2.55591374e+01
  1773.0000 0.21982398    2.54980957e+01
  1773.5000 0.21988597    2.54373184e+01
  1774.0000 0.21994796    2.53768035e+01
  1774.5000 0.22000995    2.53165491e+01
  1775.0000 0.22007194    2.52565534e+01
  1775.5000 0.22013394    2.51968145e+01
  1776.0000 0.22019593    2.51373305e+01
  1776.5000 0.22025792    2.50780996e+01
  1777.0000 0.22031991    2.50191200e+01
  1777.5000 0.22038190    2.49603898e+01
  1778.0000 0.22044390    2.49019074e+01
  1778.5000 0.22050589    2.48436710e+01
  1779.0000 0.22056788    2.47856789e+01
  1779.5000 0.22062987    2.47279293e+01
  1780.0000 0.22069186    2.46704207e+01
  1780.5000 0.22075386    2.46131512e+01
  1781.0000 0.22081585    2.45561193e+01
  1781.5000 0.22087784    2.44993233e+01
  1782.0000 0.22093983    2.44427616e+01
  1782.5000 0.22100183    2.43864327e+01
  1783.0000 0.22106382    2.43303349e+01
  1783.5000 0.22112581    2.42744668e+01
  1784.0000 0.22118780    2.42188267e+01
  1784.5000 0.22124979    2.41634131e+01
  1785.0000 0.22131179    2.41082245e+01
  1785.5000 0.22137378    2.40532595e+01
  1786.0000 0.22143577    2.39985165e+01
  1786.5000 0.22149776    2.39439942e+01
  1787.0000 0.22155975    2.38896910e+01
  1787.5000 0.22162175    2.38356055e+01
  1788.0000 0.22168374    2.37817363e+01
  1788.5000 0.22174573    2.37280820e+01
  1789.0000 0.22180772    2.36746412e+01
  1789.5000 0.22186971    2.36214125e+01
  1790.0000 0.22193171    2.35683947e+01
  1790.5000 0.22199370    2.35155863e+01
  1791.0000 0.22205569    2.34629860e+01
  1791.5000 0.22211768    2.34105924e+01
  1792.0000 0.22217968    2.33584044e+01
  1792.5000 0.22224167    2.33064206e+01
  1793.0000 0.22230366    2.32546396e+01
  1793.5000 0.22236565    2.32030603e+01
  1794.0000 0.22242764    2.31516814e+01
  1794.5000 0.22248964    2.31005017e+01
  1795.0000 0.22255163    2.30495198e+01
  1795.5000 0.22261362    2.29987347e+01
  1796.0000 0.22267561    2.29481451e+01
  1796.5000 0.22273760    2.28977497e+01
  1797.0000 0.22279960    2.28475475e+01
  1797.5000 0.22286159    2.27975372e+01
  1798.0000 0.22292358    2.27477176e+01
  1798.5000 0.22298557    2.26980877e+01
  1799.0000 0.22304756    2.26486463e+01
  1799.5000 0.22310956    2.25993923e+01
  1800.0000 0.22317155    2.25503244e+01
  1800.5000 0.22323354    2.25014417e+01
  1801.0000 0.22329553    2.24527430e+01
  1801.5000 0.22335753    2.24042273e+01
  1802.0000 0.22341952    2.23558934e+01
  1802.5000 0.22348151    2.23077403e+01
  1803.0000 0.22354350    2.22597669e+01
  1803.5000 0.22360549    2.22119722e+01
  1804.0000 0.22366749    2.21643551e+01
  1804.5000 0.22372948    2.21169146e+01
  1805.0000 0.22379147    2.20696497e+01
  1805.5000 0.22385346    2.20225594e+01
  1806.0000 0.22391545    2.19756426e+01
  1806.5000 0.22397745    2.19288984e+01
  1807.0000 0.22403944    2.18823257e+01
  1807.5000 0.22410143    2.18359237e+01
  1808.0000 0.22416342    2.17896913e+01
  1808.5000 0.22422541    2.17436275e+01
  1809.0000 0.22428741    2.16977314e+01
  1809.5000 0.22434940    2.16520021e+01
  1810.0000 0.22441139    2.16064386e+01
  1810.5000 0.22447338    2.15610400e+01
  1811.0000 0.22453537    2.15158054e+01
  1811.5000 0.22459737    2.14707338e+01
  1812.0000 0.22465936    2.14258244e+01
  1812.5000 0.22472135    2.13810762e+01
  1813.0000 0.22478334    2.13364883e+01
  1813.5000 0.22484534    2.12920600e+01
  1814.0000 0.22490733    2.12477902e+01
  1814.5000 0.22496932    2.12036781e+01
  1815.0000 0.22503131    2.11597229e+01
  1815.5000 0.22509330    2.11159237e+01
  1816.0000 0.22515530    2.10722796e+01
  1816.5000 0.22521729    2.10287898e+01
  1817.0000 0.22527928    2.09854536e+01
  1817.5000 0.22534127    2.09422699e+01
  1818.0000 0.22540326    2.08992381e+01
  1818.5000 0.22546526    2.08563572e+01
  1819.0000 0.22552725    2.08136266e+01
  1819.5000 0.22558924    2.07710454e+01
  1820.0000 0.22565123    2.07286127e+01
  1820.5000 0.22571322    2.06863278e+01
  1821.0000 0.22577522    2.06441900e+01
  1821.5000 0.22583721    2.06021984e+01
  1822.0000 0.22589920    2.05603523e+01
  1822.5000 0.22596119    2.05186508e+01
  1823.0000 0.22602319    2.04770933e+01
  1823.5000 0.22608518    2.04356790e+01
  1824.0000 0.22614717    2.03944071e+01
  1824.5000 0.22620916    2.03532769e+01
  1825.0000 0.22627115    2.03122877e+01
  1825.5000 0.22633315    2.02714387e+01
  1826.0000 0.22639514    2.02307292e+01
  1826.5000 0.22645713    2.01901585e+01
  1827.0000 0.22651912    2.01497258e+01
  1827.5000 0.22658111    2.01094304e+01
  1828.0000 0.22664311    2.00692718e+01
  1828.5000 0.22670510    2.00292490e+01
  1829.0000 0.22676709    1.99893615e+01
  1829.5000 0.22682908    1.99496086e+01
  1830.0000 0.22689107    1.99099896e+01
  1830.5000 0.22695307    1.98705037e+01
  1831.0000 0.22701506    1.98311504e+01
  1831.5000 0.22707705    1.97919289e+01
  1832.0000 0.22713904    1.97528387e+01
  1832.5000 0.22720104    1.97138789e+01
  1833.0000 0.22726303    1.96750490e+01
  1833.5000 0.22732502    1.96363484e+01
  1834.0000 0.22738701    1.95977763e+01
  1834.5000 0.22744900    1.95593322e+01
  1835.0000 0.22751100    1.95210154e+01
  1835.5000 0.22757299    1.94828253e+01
  1836.0000 0.22763498    1.94447612e+01
  1836.5000 0.22769697    1.94068225e+01
  1837.0000 0.22775896    1.93690086e+01
  1837.5000 0.22782096    1.93313190e+01
  1838.0000 0.22788295    1.92937529e+01
  1838.5000 0.22794494    1.92563098e+01
  1839.0000 0.22800693    1.92189890e+01
  1839.5000 0.22806892    1.91817901e+01
  1840.0000 0.22813092    1.91447123e+01
  1840.5000 0.22819291    1.91077551e+01
  1841.0000 0.22825490    1.90709180e+01
  1841.5000 0.22831689    1.90342003e+01
  1842.0000 0.22837888    1.89976014e+01
  1842.5000 0.22844088    1.89611208e+01
  1843.0000 0.22850287    1.89247580e+01
  1843.5000 0.22856486    1.88885123e+01
  1844.0000 0.22862685    1.88523832e+01
  1844.5000 0.22868885    1.88163701e+01
  1845.0000 0.22875084    1.87804725e+01
  1845.5000 0.22881283    1.87446898e+01
  1846.0000 0.22887482    1.87090215e+01
  1846.5000 0.22893681    1.86734671e+01
  1847.0000 0.22899881    1.86380260e+01
  1847.5000 0.22906080    1.86026976e+01
  1848.0000 0.22912279    1.85674815e+01
  1848.5000 0.22918478    1.85323771e+01
  1849.0000 0.22924677    1.84973839e+01
  1849.5000 0.22930877    1.84625014e+01
  1850.0000 0.22937076    1.84277290e+01
  1850.5000 0.22943275    1.83930663e+01
  1851.0000 0.22949474    1.83585126e+01
  1851.5000 0.22955673    1.83240677e+01
  1852.0000 0.22961873    1.82897308e+01
  1852.5000 0.22968072    1.82555015e+01
  1853.0000 0.22974271    1.82213794e+01
  1853.5000 0.22980470    1.81873639e+01
  1854.0000 0.22986670    1.81534545e+01
  1854.5000 0.22992869    1.81196507e+01
  1855.0000 0.22999068    1.80859522e+01
  1855.5000 0.23005267    1.80523583e+01
  1856.0000 0.23011466    1.80188686e+01
  1856.5000 0.23017666    1.79854827e+01
  1857.0000 0.23023865    1.79522000e+01
  1857.5000 0.23030064    1.79190201e+01
  1858.0000 0.23036263    1.78859425e+01
  1858.5000 0.23042462    1.78529668e+01
  1859.0000 0.23048662    1.78200924e+01
  1859.5000 0.23054861    1.77873191e+01
  1860.0000 0.23061060    1.77546462e+01
  1860.5000 0.23067259    1.77220733e+01
  1861.0000 0.23073458    1.76896001e+01
  1861.5000 0.23079658    1.76572259e+01
  1862.0000 0.23085857    1.76249505e+01
  1862.5000 0.23092056    1.75927734e+01
  1863.0000 0.23098255    1.75606940e+01
  1863.5000 0.23104455    1.75287121e+01
  1864.0000 0.23110654    1.74968271e+01
  1864.5000 0.23116853    1.74650386e+01
  1865.0000 0.23123052    1.74333463e+01
  1865.5000 0.23129251    1.74017496e+01
  1866.0000 0.23135451    1.73702481e+01
  1866.5000 0.23141650    1.73388415e+01
  1867.0000 0.23147849    1.73075294e+01
  1867.5000 0.23154048    1.72763112e+01
  1868.0000 0.23160247    1.72451866e+01
  1868.5000 0.23166447    1.72141552e+01
  1869.0000 0.23172646    1.71832166e+01
  1869.5000 0.23178845    1.71523704e+01
  1870.0000 0.23185044    1.71216161e+01
  1870.5000 0.23191243    1.70909534e+01
  1871.0000 0.23197443    1.70603819e+01
  1871.5000 0.23203642    1.70299012e+01
  1872.0000 0.23209841    1.69995108e+01
  1872.5000 0.23216040    1.69692105e+01
  1873.0000 0.23222239    1.69389998e+01
  1873.5000 0.23228439    1.69088783e+01
  1874.0000 0.23234638    1.68788457e+01
  1874.5000 0.23240837    1.68489016e+01
  1875.0000 0.23247036    1.68190455e+01
  1875.5000 0.23253236    1.67892772e+01
  1876.0000 0.23259435    1.67595962e+01
  1876.5000 0.23265634    1.67300021e+01
  1877.0000 0.23271833    1.67004947e+01
  1877.5000 0.23278032    1.66710735e+01
  1878.0000 0.23284232    1.66417382e+01
  1878.5000 0.23290431    1.66124884e+01
  1879.0000 0.23296630    1.65833237e+01
  1879.5000 0.23302829    1.65542439e+01
  1880.0000 0.23309028    1.65252484e+01
  1880.5000 0.23315228    1.64963371e+01
  1881.0000 0.23321427    1.64675094e+01
  1881.5000 0.23327626    1.64387652e+01
  1882.0000 0.23333825    1.64101040e+01
  1882.5000 0.23340024    1.63815254e+01
  1883.0000 0.23346224    1.63530292e+01
  1883.5000 0.23352423    1.63246150e+01
  1884.0000 0.23358622    1.62962825e+01
  1884.5000 0.23364821    1.62680312e+01
  1885.0000 0.23371021    1.62398610e+01
  1885.5000 0.23377220    1.62117714e+01
  1886.0000 0.23383419    1.61837621e+01
  1886.5000 0.23389618    1.61558328e+01
  1887.0000 0.23395817    1.61279831e+01
  1887.5000 0.23402017    1.61002128e+01
  1888.0000 0.23408216    1.60725215e+01
  1888.5000 0.23414415    1.60449089e+01
  1889.0000 0.23420614    1.60173746e+01
  1889.5000 0.23426813    1.59899184e+01
  1890.0000 0.23433013    1.59625399e+01
  1890.5000 0.23439212    1.59352388e+01
  1891.0000 0.23445411    1.59080148e+01
  1891.5000 0.23451610    1.58808675e+01
  1892.0000 0.23457809    1.58537968e+01
  1892.5000 0.23464009    1.58268022e+01
  1893.0000 0.23470208    1.57998834e+01
  1893.5000 0.23476407    1.57730402e+01
  1894.0000 0.23482606    1.57462723e+01
  1894.5000 0.23488806    1.57195793e+01
  1895.0000 0.23495005    1.56929609e+01
  1895.5000 0.23501204    1.56664168e+01
  1896.0000 0.23507403    1.56399468e+01
  1896.5000 0.23513602    1.56135506e+01
  1897.0000 0.23519802    1.55872278e+01
  1897.5000 0.23526001    1.55609782e+01
  1898.0000 0.23532200    1.55348014e+01
  1898.5000 0.23538399    1.55086973e+01
  1899.0000 0.23544598    1.54826654e+01
  1899.5000 0.23550798    1.54567055e+01
  1900.0000 0.23556997    1.54308174e+01
  1900.5000 0.23563196    1.54050007e+01
  1901.0000 0.23569395    1.53792551e+01
  1901.5000 0.23575594    1.53535805e+01
  1902.0000 0.23581794    1.53279764e+01
  1902.5000 0.23587993    1.53024426e+01
  1903.0000 0.23594192    1.52769789e+01
  1903.5000 0.23600391    1.52515850e+01
  1904.0000 0.23606590    1.52262606e+01
  1904.5000 0.23612790    1.52010054e+01
  1905.0000 0.23618989    1.51758192e+01
  1905.5000 0.23625188    1.51507017e+01
  1906.0000 0.23631387    1.51256526e+01
  1906.5000 0.23637587    1.51006716e+01
  1907.0000 0.23643786    1.50757586e+01
  1907.5000 0.23649985    1.50509132e+01
  1908.0000 0.23656184    1.50261351e+01
  1908.5000 0.23662383    1.50014242e+01
  1909.0000 0.23668583    1.49767801e+01
  1909.5000 0.23674782    1.49522026e+01
  1910.0000 0.23680981    1.49276915e+01
  1910.5000 0.23687180    1.49032465e+01
  1911.0000 0.23693379    1.48788672e+01
  1911.5000 0.23699579    1.48545536e+01
  1912.0000 0.23705778    1.48303053e+01
  1912.5000 0.23711977    1.48061221e+01
  1913.0000 0.23718176    1.47820037e+01
  1913.5000 0.23724375    1.47579499e+01
  1914.0000 0.23730575    1.47339605e+01
  1914.5000 0.23736774    1.47100351e+01
  1915.0000 0.23742973    1.46861736e+01
  1915.5000 0.23749172    1.46623757e+01
  1916.0000 0.23755372    1.46386412e+01
  1916.5000 0.23761571    1.46149699e+01
  1917.0000 0.23767770    1.45913614e+01
  1917.5000 0.23773969    1.45678156e+01
  1918.0000 0.23780168    1.45443322e+01
  1918.5000 0.23786368    1.45209110e+01
  1919.0000 0.23792567    1.44975518e+01
  1919.5000 0.23798766    1.44742543e+01
  1920.0000 0.23804965    1.44510183e+01
  1920.5000 0.23811164    1.44278435e+01
  1921.0000 0.23817364    1.44047298e+01
  1921.5000 0.23823563    1.43816769e+01
  1922.0000 0.23829762    1.43586846e+01
  1922.5000 0.23835961    1.43357526e+01
  1923.0000 0.23842160    1.43128808e+01
  1923.5000 0.23848360    1.42900689e+01
  1924.0000 0.23854559    1.42673167e+01
  1924.5000 0.23860758    1.42446240e+01
  1925.0000 0.23866957    1.42219905e+01
  1925.5000 0.23873157    1.41994160e+01
  1926.0000 0.23879356    1.41769004e+01
  1926.5000 0.23885555    1.41544434e+01
  1927.0000 0.23891754    1.41320447e+01
  1927.5000 0.23897953    1.41097042e+01
  1928.0000 0.23904153    1.40874217e+01
  1928.5000 0.23910352    1.40651969e+01
  1929.0000 0.23916551    1.40430297e+01
  1929.5000 0.23922750    1.40209198e+01
  1930.0000 0.23928949    1.39988670e+01
  1930.5000 0.23935149    1.39768711e+01
  1931.0000 0.23941348    1.39549320e+01
  1931.5000 0.23947547    1.39330493e+01
  1932.0000 0.23953746    1.39112229e+01
  1932.5000 0.23959945    1.38894526e+01
  1933.0000 0.23966145    1.38677382e+01
  1933.5000 0.23972344    1.38460795e+01
  1934.0000 0.23978543    1.38244763e+01
  1934.5000 0.23984742    1.38029283e+01
  1935.0000 0.23990941    1.37814355e+01
  1935.5000 0.23997141    1.37599975e+01
  1936.0000 0.24003340    1.37386143e+01
  1936.5000 0.24009539    1.37172855e+01
  1937.0000 0.24015738    1.36960110e+01
  1937.5000 0.24021938    1.36747906e+01
  1938.0000 0.24028137    1.36536242e+01
  1938.5000 0.24034336    1.36325115e+01
  1939.0000 0.24040535    1.36114523e+01
  1939.5000 0.24046734    1.35904464e+01
  1940.0000 0.24052934    1.35694937e+01
  1940.5000 0.24059133    1.35485940e+01
  1941.0000 0.24065332    1.35277470e+01
  1941.5000 0.24071531    1.35069527e+01
  1942.0000 0.24077730    1.34862107e+01
  1942.5000 0.24083930    1.34655210e+01
  1943.0000 0.24090129    1.34448832e+01
  1943.5000 0.24096328    1.34242974e+01
  1944.0000 0.24102527    1.34037632e+01
  1944.5000 0.24108726    1.33832805e+01
  1945.0000 0.24114926    1.33628491e+01
  1945.5000 0.24121125    1.33424689e+01
  1946.0000 0.24127324    1.33221396e+01
  1946.5000 0.24133523    1.33018610e+01
  1947.0000 0.24139723    1.32816331e+01
  1947.5000 0.24145922    1.32614556e+01
  1948.0000 0.24152121    1.32413283e+01
  1948.5000 0.24158320    1.32212511e+01
  1949.0000 0.24164519    1.32012238e+01
  1949.5000 0.24170719    1.31812462e+01
  1950.0000 0.24176918    1.31613181e+01
  1950.5000 0.24183117    1.31414395e+01
  1951.0000 0.24189316    1.31216100e+01
  1951.5000 0.24195515    1.31018296e+01
  1952.0000 0.24201715    1.30820981e+01
  1952.5000 0.24207914    1.30624152e+01
  1953.0000 0.24214113    1.30427809e+01
  1953.5000 0.24220312    1.30231950e+01
  1954.0000 0.24226511    1.30036572e+01
  1954.5000 0.24232711    1.29841675e+01
  1955.0000 0.24238910    1.29647257e+01
  1955.5000 0.24245109    1.29453315e+01
  1956.0000 0.24251308    1.29259850e+01
  1956.5000 0.24257508    1.29066858e+01
  1957.0000 0.24263707    1.28874338e+01
  1957.5000 0.24269906    1.28682289e+01
  1958.0000 0.24276105    1.28490708e+01
  1958.5000 0.24282304    1.28299596e+01
  1959.0000 0.24288504    1.28108949e+01
  1959.5000 0.24294703    1.27918766e+01
  1960.0000 0.24300902    1.27729046e+01
  1960.5000 0.24307101    1.27539787e+01
  1961.0000 0.24313300    1.27350988e+01
  1961.5000 0.24319500    1.27162647e+01
  1962.0000 0.24325699    1.26974762e+01
  1962.5000 0.24331898    1.26787332e+01
  1963.0000 0.24338097    1.26600356e+01
  1963.5000 0.24344296    1.26413831e+01
  1964.0000 0.24350496    1.26227757e+01
  1964.5000 0.24356695    1.26042131e+01
  1965.0000 0.24362894    1.25856954e+01
  1965.5000 0.24369093    1.25672221e+01
  1966.0000 0.24375292    1.25487934e+01
  1966.5000 0.24381492    1.25304089e+01
  1967.0000 0.24387691    1.25120686e+01
  1967.5000 0.24393890    1.24937722e+01
  1968.0000 0.24400089    1.24755198e+01
  1968.5000 0.24406289    1.24573110e+01
  1969.0000 0.24412488    1.24391458e+01
  1969.5000 0.24418687    1.24210239e+01
  1970.0000 0.24424886    1.24029454e+01
  1970.5000 0.24431085    1.23849100e+01
  1971.0000 0.24437285    1.23669176e+01
  1971.5000 0.24443484    1.23489680e+01
  1972.0000 0.24449683    1.23310612e+01
  1972.5000 0.24455882    1.23131969e+01
  1973.0000 0.24462081    1.22953750e+01
  1973.5000 0.24468281    1.22775954e+01
  1974.0000 0.24474480    1.22598580e+01
  1974.5000 0.24480679    1.22421625e+01
  1975.0000 0.24486878    1.22245090e+01
  1975.5000 0.24493077    1.22068972e+01
  1976.0000 0.24499277    1.21893269e+01
  1976.5000 0.24505476    1.21717982e+01
  1977.0000 0.24511675    1.21543108e+01
  1977.5000 0.24517874    1.21368645e+01
  1978.0000 0.24524074    1.21194594e+01
  1978.5000 0.24530273    1.21020951e+01
  1979.0000 0.24536472    1.20847717e+01
  1979.5000 0.24542671    1.20674889e+01
  1980.0000 0.24548870    1.20502466e+01
  1980.5000 0.24555070    1.20330448e+01
  1981.0000 0.24561269    1.20158832e+01
  1981.5000 0.24567468    1.19987617e+01
  1982.0000 0.24573667    1.19816803e+01
  1982.5000 0.24579866    1.19646388e+01
  1983.0000 0.24586066    1.19476370e+01
  1983.5000 0.24592265    1.19306748e+01
  1984.0000 0.24598464    1.19137521e+01
  1984.5000 0.24604663    1.18968688e+01
  1985.0000 0.24610862    1.18800248e+01
  1985.5000 0.24617062    1.18632199e+01
  1986.0000 0.24623261    1.18464539e+01
  1986.5000 0.24629460    1.18297269e+01
  1987.0000 0.24635659    1.18130386e+01
  1987.5000 0.24641859    1.17963889e+01
  1988.0000 0.24648058    1.17797778e+01
  1988.5000 0.24654257    1.17632050e+01
  1989.0000 0.24660456    1.17466704e+01
  1989.5000 0.24666655    1.17301741e+01
  1990.0000 0.24672855    1.17137157e+01
  1990.5000 0.24679054    1.16972952e+01
  1991.0000 0.24685253    1.16809125e+01
  1991.5000 0.24691452    1.16645675e+01
  1992.0000 0.24697651    1.16482600e+01
  1992.5000 0.24703851    1.16319899e+01
  1993.0000 0.24710050    1.16157572e+01
  1993.5000 0.24716249    1.15995616e+01
  1994.0000 0.24722448    1.15834031e+01
  1994.5000 0.24728647    1.15672816e+01
  1995.0000 0.24734847    1.15511969e+01
  1995.5000 0.24741046    1.15351489e+01
  1996.0000 0.24747245    1.15191375e+01
  1996.5000 0.24753444    1.15031626e+01
  1997.0000 0.24759643    1.14872241e+01
  1997.5000 0.24765843    1.14713219e+01
  1998.0000 0.24772042    1.14554558e+01
  1998.5000 0.24778241    1.14396258e+01
  1999.0000 0.24784440    1.14238317e+01
  1999.5000 0.24790640    1.14080734e+01
  2000.0000 0.24796839    1.13923509e+01
